Time,Extension,Load
(sec),(mm),(N)
0.00000,0.00000,-0.01688
0.10000,-0.01704,-0.00579
0.20000,-0.05124,0.02271
0.30000,-0.08562,-0.00651
0.40000,-0.11820,-0.02279
0.50000,-0.14935,-0.00761
0.60000,-0.17985,-0.00218
0.70000,-0.20998,-0.01315
0.80000,-0.24005,-0.00977
0.90000,-0.27013,-0.02274
1.00000,-0.30014,-0.03190
1.10000,-0.33016,-0.03841
1.20000,-0.36011,-0.04253
1.30000,-0.39007,-0.05929
1.40000,-0.42020,-0.05814
1.50000,-0.45010,-0.06337
1.60000,-0.48017,-0.07259
1.70000,-0.51006,-0.07397
1.80000,-0.54002,-0.07944
1.90000,-0.56997,-0.08016
2.00000,-0.60005,-0.07779
2.10000,-0.63006,-0.07532
2.20000,-0.66008,-0.07908
2.30000,-0.69009,-0.07596
2.40000,-0.72010,-0.07710
2.50000,-0.75006,-0.08108
2.60000,-0.78001,-0.07780
2.70000,-0.81003,-0.08227
2.80000,-0.84004,-0.08803
2.90000,-0.87006,-0.08893
3.00000,-0.90007,-0.09420
3.10000,-0.93009,-0.09371
3.20000,-0.96004,-0.09652
3.30000,-0.99005,-0.10147
3.40000,-1.02007,-0.10769
3.50000,-1.04996,-0.11326
3.60000,-1.08004,-0.11619
3.70000,-1.10999,-0.12139
3.80000,-1.13995,-0.12293
3.90000,-1.16996,-0.12184
4.00000,-1.19998,-0.12330
4.10000,-1.22993,-0.13851
4.20000,-1.26006,-0.12525
4.30000,-1.29002,-0.14212
4.40000,-1.32003,-0.14235
4.50000,-1.35005,-0.15178
4.60000,-1.38000,-0.14844
4.70000,-1.41014,-0.15434
4.80000,-1.44003,-0.16056
4.90000,-1.47016,-0.16550
5.00000,-1.50006,-0.17091
5.10000,-1.53007,-0.17897
5.20000,-1.56009,-0.18616
5.30000,-1.59016,-0.18973
5.40000,-1.62006,-0.19983
5.50000,-1.65013,-0.20824
5.60000,-1.68008,-0.21578
5.70000,-1.70998,-0.22414
5.80000,-1.74005,-0.22533
5.90000,-1.76995,-0.23963
6.00000,-1.80008,-0.24278
6.10000,-1.82998,-0.24345
6.20000,-1.85999,-0.24023
6.30000,-1.89001,-0.24026
6.40000,-1.92002,-0.23303
6.50000,-1.95003,-0.24290
6.60000,-1.97975,-0.23928
6.70000,-2.00988,-0.23993
6.80000,-2.03996,-0.23958
6.90000,-2.07009,-0.23457
7.00000,-2.10017,-0.23385
7.10000,-2.13018,-0.23897
7.20000,-2.16002,-0.23409
7.30000,-2.19003,-0.23806
7.40000,-2.21992,-0.23054
7.50000,-2.25006,-0.23491
7.60000,-2.27995,-0.23356
7.70000,-2.30997,-0.23384
7.80000,-2.33992,-0.23252
7.90000,-2.37006,-0.22823
8.00000,-2.39995,-0.23305
8.10000,-2.43008,-0.23463
8.20000,-2.45998,-0.23264
8.30000,-2.48999,-0.23232
8.40000,-2.51989,-0.23584
8.50000,-2.55002,-0.23087
8.60000,-2.58016,-0.23260
8.70000,-2.60999,-0.23718
8.80000,-2.64007,-0.23649
8.90000,-2.67008,-0.23562
9.00000,-2.70009,-0.23436
9.10000,-2.73011,-0.23619
9.20000,-2.76006,-0.23783
9.30000,-2.79008,-0.23860
9.40000,-2.82003,-0.23833
9.50000,-2.85005,-0.23773
9.60000,-2.88012,-0.24240
9.70000,-2.91007,-0.24104
9.80000,-2.94003,-0.24298
9.90000,-2.97010,-0.24624
10.00000,-3.00006,-0.24602
10.10000,-3.03007,-0.24841
10.20000,-3.06009,-0.25427
10.30000,-3.09004,-0.25632
10.40000,-3.12017,-0.25772
10.50000,-3.15001,-0.25893
10.60000,-3.18002,-0.25714
10.70000,-3.20998,-0.26046
10.80000,-3.23993,-0.26164
10.90000,-3.26995,-0.26430
11.00000,-3.29996,-0.26415
11.10000,-3.32998,-0.26953
11.20000,-3.36005,-0.27370
11.30000,-3.38989,-0.28016
11.40000,-3.41996,-0.28695
11.50000,-3.44991,-0.28145
11.60000,-3.48005,-0.28235
11.70000,-3.51000,-0.28926
11.80000,-3.54002,-0.29363
11.90000,-3.57003,-0.29238
12.00000,-3.60005,-0.30100
12.10000,-3.62994,-0.30499
12.20000,-3.66001,-0.31136
12.30000,-3.68997,-0.31262
12.40000,-3.72010,-0.32251
12.50000,-3.75012,-0.32088
12.60000,-3.78013,-0.32666
12.70000,-3.80997,-0.33610
12.80000,-3.84004,-0.33588
12.90000,-3.86994,-0.33372
13.00000,-3.89995,-0.34455
13.10000,-3.93002,-0.35523
13.20000,-3.96004,-0.34874
13.30000,-3.99005,-0.35583
13.40000,-4.02007,-0.35915
13.50000,-4.04996,-0.35979
13.60000,-4.08004,-0.36635
13.70000,-4.10999,-0.37362
13.80000,-4.14000,-0.37186
13.90000,-4.17002,-0.37185
14.00000,-4.20009,-0.38295
14.10000,-4.22993,-0.38566
14.20000,-4.26012,-0.38637
14.30000,-4.29002,-0.39008
14.40000,-4.32009,-0.38750
14.50000,-4.35005,-0.39249
14.60000,-4.38006,-0.40047
14.70000,-4.41013,-0.39994
14.80000,-4.44003,-0.40113
14.90000,-4.47004,-0.40911
15.00000,-4.50000,-0.41102
15.10000,-4.53001,-0.41509
15.20000,-4.55991,-0.42043
15.30000,-4.58998,-0.42413
15.40000,-4.61999,-0.42849
15.50000,-4.65007,-0.43226
15.60000,-4.68014,-0.43755
15.70000,-4.71004,-0.43931
15.80000,-4.74011,-0.44632
15.90000,-4.77001,-0.44961
16.00000,-4.79996,-0.45425
16.10000,-4.83004,-0.45901
16.20000,-4.86005,-0.46692
16.30000,-4.89006,-0.47106
16.40000,-4.91996,-0.47821
16.50000,-4.94985,-0.48171
16.60000,-4.97993,-0.48604
16.70000,-5.01012,-0.49389
16.80000,-5.04020,-0.50138
16.90000,-5.07015,-0.50930
17.00000,-5.10010,-0.50901
17.10000,-5.13006,-0.52236
17.20000,-5.15995,-0.52437
17.30000,-5.19003,-0.53431
17.40000,-5.21992,-0.53854
17.50000,-5.25006,-0.53905
17.60000,-5.28001,-0.53968
17.70000,-5.31003,-0.54985
17.80000,-5.34010,-0.56169
17.90000,-5.36999,-0.56509
18.00000,-5.40007,-0.56705
18.10000,-5.42996,-0.57173
18.20000,-5.46004,-0.57858
18.30000,-5.48999,-0.58896
18.40000,-5.51995,-0.58976
18.50000,-5.55008,-0.59235
18.60000,-5.58009,-0.60458
18.70000,-5.61005,-0.60464
18.80000,-5.64018,-0.60805
18.90000,-5.67008,-0.61782
19.00000,-5.70009,-0.62651
19.10000,-5.73005,-0.63280
19.20000,-5.75994,-0.63759
19.30000,-5.79001,-0.64788
19.40000,-5.81991,-0.65383
19.50000,-5.85004,-0.66574
19.60000,-5.87994,-0.67112
19.70000,-5.91001,-0.68064
19.80000,-5.94003,-0.68908
19.90000,-5.97004,-0.69909
20.00000,-6.00000,-0.70371
20.10000,-6.03013,-0.71195
20.20000,-6.06002,-0.71682
20.30000,-6.09004,-0.73147
20.40000,-6.12005,-0.73963
20.50000,-6.15001,-0.74712
20.60000,-6.18008,-0.75580
20.70000,-6.21010,-0.76231
20.80000,-6.24011,-0.77105
20.90000,-6.27007,-0.78277
21.00000,-6.30008,-0.79070
21.10000,-6.33003,-0.79728
21.20000,-6.36017,-0.80446
21.30000,-6.39006,-0.81729
21.40000,-6.42002,-0.82096
21.50000,-6.44997,-0.82880
21.60000,-6.47999,-0.83417
21.70000,-6.51006,-0.84396
21.80000,-6.53995,-0.85112
21.90000,-6.57015,-0.85760
22.00000,-6.60004,-0.86556
22.10000,-6.63018,-0.87511
22.20000,-6.66001,-0.88089
22.30000,-6.68991,-0.89621
22.40000,-6.72004,-0.90226
22.50000,-6.74994,-0.90795
22.60000,-6.78001,-0.91721
22.70000,-6.80996,-0.92555
22.80000,-6.84010,-0.93002
22.90000,-6.86999,-0.93900
23.00000,-6.90001,-0.94644
23.10000,-6.93002,-0.94896
23.20000,-6.96004,-0.95007
23.30000,-6.98999,-0.95021
23.40000,-7.02006,-0.94559
23.50000,-7.04996,-0.93994
23.60000,-7.07997,-0.93433
23.70000,-7.10993,-0.93084
23.80000,-7.13994,-0.92576
23.90000,-7.16990,-0.92421
24.00000,-7.19997,-0.92096
24.10000,-7.23005,-0.92425
24.20000,-7.26006,-0.93365
24.30000,-7.29001,-0.91411
24.40000,-7.32009,-0.93037
24.50000,-7.35004,-0.93171
24.60000,-7.38000,-0.93922
24.70000,-7.41001,-0.94307
24.80000,-7.44003,-0.93729
24.90000,-7.47004,-0.93613
25.00000,-7.50011,-0.93388
25.10000,-7.53007,-0.93004
25.20000,-7.56008,-0.92503
25.30000,-7.59004,-0.91957
25.40000,-7.62005,-0.91143
25.50000,-7.64995,-0.90081
25.60000,-7.68008,-0.89478
25.70000,-7.71004,-0.88818
25.80000,-7.73999,-0.88181
25.90000,-7.77006,-0.87384
26.00000,-7.80002,-0.86824
26.10000,-7.82997,-0.86065
26.20000,-7.85993,-0.85695
26.30000,-7.88976,-0.85063
26.40000,-7.91996,-0.84549
26.50000,-7.95009,-0.84031
26.60000,-7.98016,-0.83800
26.70000,-8.01000,-0.82992
26.80000,-8.04007,-0.82367
26.90000,-8.07009,-0.82110
27.00000,-8.10010,-0.80899
27.10000,-8.13012,-0.80506
27.20000,-8.16007,-0.79859
27.30000,-8.19009,-0.79084
27.40000,-8.22004,-0.78281
27.50000,-8.25011,-0.77630
27.60000,-8.28007,-0.77063
27.70000,-8.30996,-0.76346
27.80000,-8.34010,-0.75760
27.90000,-8.36999,-0.75306
28.00000,-8.39995,-0.74677
28.10000,-8.43002,-0.74145
28.20000,-8.45992,-0.73794
28.30000,-8.49005,-0.73525
28.40000,-8.52000,-0.73450
28.50000,-8.55008,-0.74216
28.60000,-8.58003,-0.76092
28.70000,-8.61005,-0.77725
28.80000,-8.64006,-0.79636
28.90000,-8.67002,-0.81315
29.00000,-8.70003,-0.83127
29.10000,-8.73004,-0.84733
29.20000,-8.76000,-0.86721
29.30000,-8.79001,-0.88121
29.40000,-8.82003,-0.89894
29.50000,-8.85010,-0.91717
29.60000,-8.88000,-0.93741
29.70000,-8.90995,-0.95252
29.80000,-8.93991,-0.97084
29.90000,-8.96992,-0.98516
30.00000,-8.99999,-0.99749
30.10000,-9.03001,-1.00517
30.20000,-9.05996,-1.00688
30.30000,-9.09004,-0.99295
30.40000,-9.11999,-0.97931
30.50000,-9.15007,-0.97002
30.60000,-9.18002,-0.96071
30.70000,-9.21009,-0.95103
30.80000,-9.24011,-0.93861
30.90000,-9.27006,-0.93140
31.00000,-9.30008,-0.92107
31.10000,-9.33003,-0.91326
31.20000,-9.36005,-0.90819
31.30000,-9.39006,-0.90730
31.40000,-9.42002,-0.91109
31.50000,-9.45009,-0.92889
31.60000,-9.47998,-0.94382
31.70000,-9.50994,-0.96318
31.80000,-9.53995,-0.97883
31.90000,-9.56997,-1.00085
32.00000,-9.59998,-1.01600
32.10000,-9.63006,-1.03676
32.20000,-9.66001,-1.05808
32.30000,-9.69002,-1.07681
32.40000,-9.72004,-1.09787
32.50000,-9.75005,-1.12013
32.60000,-9.78007,-1.14123
32.70000,-9.81014,-1.16062
32.80000,-9.84010,-1.18536
32.90000,-9.87011,-1.20582
33.00000,-9.90012,-1.22834
33.10000,-9.93008,-1.24836
33.20000,-9.96009,-1.27225
33.30000,-9.98999,-1.28676
33.40000,-10.02006,-1.31027
33.50000,-10.04990,-1.32754
33.60000,-10.07997,-1.35009
33.70000,-10.11005,-1.36988
33.80000,-10.13994,-1.39583
33.90000,-10.17008,-1.41687
34.00000,-10.19997,-1.43869
34.10000,-10.22998,-1.45979
34.20000,-10.25994,-1.48117
34.30000,-10.28995,-1.50614
34.40000,-10.32009,-1.52636
34.50000,-10.35004,-1.54966
34.60000,-10.38006,-1.57127
34.70000,-10.41007,-1.59618
34.80000,-10.44008,-1.61614
34.90000,-10.47004,-1.63893
35.00000,-10.50011,-1.65707
35.10000,-10.53007,-1.68483
35.20000,-10.56008,-1.70117
35.30000,-10.58998,-1.71772
35.40000,-10.62005,-1.72991
35.50000,-10.64995,-1.70922
35.60000,-10.68008,-1.69567
35.70000,-10.70997,-1.68159
35.80000,-10.74011,-1.66442
35.90000,-10.77000,-1.64816
36.00000,-10.80008,-1.63323
36.10000,-10.82997,-1.62150
36.20000,-10.85993,-1.60863
36.30000,-10.88994,-1.59615
36.40000,-10.92007,-1.58323
36.50000,-10.95003,-1.57221
36.60000,-10.97998,-1.57241
36.70000,-11.01006,-1.59157
36.80000,-11.04001,-1.62031
36.90000,-11.07009,-1.64197
37.00000,-11.10010,-1.66948
37.10000,-11.13006,-1.69204
37.20000,-11.16007,-1.72195
37.30000,-11.19008,-1.74465
37.40000,-11.22010,-1.76878
37.50000,-11.25005,-1.79191
37.60000,-11.28001,-1.81854
37.70000,-11.31002,-1.84067
37.80000,-11.34016,-1.86643
37.90000,-11.37005,-1.89016
38.00000,-11.40006,-1.91012
38.10000,-11.43002,-1.92491
38.20000,-11.45997,-1.94372
38.30000,-11.49005,-1.95946
38.40000,-11.52000,-1.97633
38.50000,-11.55008,-1.99368
38.60000,-11.57997,-2.00525
38.70000,-11.60999,-1.98856
38.80000,-11.64000,-1.97035
38.90000,-11.67001,-1.95252
39.00000,-11.70003,-1.93280
39.10000,-11.73010,-1.91596
39.20000,-11.76000,-1.89799
39.30000,-11.79007,-1.88084
39.40000,-11.82003,-1.86357
39.50000,-11.85010,-1.84539
39.60000,-11.87999,-1.83432
39.70000,-11.91007,-1.82717
39.80000,-11.94002,-1.83561
39.90000,-11.96998,-1.86255
40.00000,-11.99999,-1.89227
40.10000,-12.03001,-1.91982
40.20000,-12.05996,-1.94480
40.30000,-12.09004,-1.97395
40.40000,-12.11999,-1.99826
40.50000,-12.15000,-2.02733
40.60000,-12.18002,-2.05523
40.70000,-12.21009,-2.08052
40.80000,-12.23999,-2.10608
40.90000,-12.27006,-2.12967
41.00000,-12.30008,-2.15728
41.10000,-12.33003,-2.17999
41.20000,-12.35998,-2.19872
41.30000,-12.39012,-2.20687
41.40000,-12.42007,-2.22343
41.50000,-12.45009,-2.22032
41.60000,-12.48010,-2.19042
41.70000,-12.50994,-2.16470
41.80000,-12.54001,-2.14516
41.90000,-12.56990,-2.12347
42.00000,-12.59998,-2.10936
42.10000,-12.63005,-2.08840
42.20000,-12.66001,-2.07290
42.30000,-12.69002,-2.05274
42.40000,-12.72004,-2.04363
42.50000,-12.75005,-2.03941
42.60000,-12.78013,-2.05388
42.70000,-12.81014,-2.08483
42.80000,-12.84003,-2.11242
42.90000,-12.87005,-2.14311
43.00000,-12.90000,-2.16756
43.10000,-12.93008,-2.20042
43.20000,-12.96009,-2.22640
43.30000,-12.99011,-2.25317
43.40000,-13.02006,-2.28182
43.50000,-13.05007,-2.30890
43.60000,-13.07997,-2.32696
43.70000,-13.11004,-2.34844
43.80000,-13.14000,-2.35672
43.90000,-13.17007,-2.35704
44.00000,-13.20009,-2.35788
44.10000,-13.23004,-2.36363
44.20000,-13.26012,-2.36458
44.30000,-13.29001,-2.35005
44.40000,-13.32002,-2.31928
44.50000,-13.34992,-2.29293
44.60000,-13.38005,-2.27215
44.70000,-13.41001,-2.24885
44.80000,-13.44002,-2.23236
44.90000,-13.46998,-2.20958
45.00000,-13.50005,-2.18964
45.10000,-13.53001,-2.16734
45.20000,-13.56008,-2.15233
45.30000,-13.59003,-2.12956
45.40000,-13.62005,-2.11311
45.50000,-13.65000,-2.09326
45.60000,-13.67996,-2.08577
45.70000,-13.70997,-2.10389
45.80000,-13.73993,-2.13231
45.90000,-13.77006,-2.16714
46.00000,-13.79995,-2.19521
46.10000,-13.83003,-2.22925
46.20000,-13.86004,-2.26075
46.30000,-13.89000,-2.29566
46.40000,-13.92013,-2.32328
46.50000,-13.95003,-2.35824
46.60000,-13.98004,-2.38602
46.70000,-14.01005,-2.41609
46.80000,-14.04001,-2.44649
46.90000,-14.07008,-2.47656
47.00000,-14.10010,-2.49997
47.10000,-14.13005,-2.52074
47.20000,-14.16019,-2.54126
47.30000,-14.19002,-2.54894
47.40000,-14.22010,-2.55083
47.50000,-14.24999,-2.55720
47.60000,-14.28001,-2.56514
47.70000,-14.30996,-2.54852
47.80000,-14.34003,-2.50980
47.90000,-14.36999,-2.48302
48.00000,-14.40006,-2.45814
48.10000,-14.42996,-2.43498
48.20000,-14.46003,-2.41394
48.30000,-14.49005,-2.38631
48.40000,-14.52006,-2.36237
48.50000,-14.55007,-2.33731
48.60000,-14.58003,-2.30828
48.70000,-14.60998,-2.28541
48.80000,-14.63988,-2.26703
48.90000,-14.67001,-2.24272
49.00000,-14.69997,-2.21487
49.10000,-14.73004,-2.19556
49.20000,-14.75999,-2.17216
49.30000,-14.79001,-2.15476
49.40000,-14.81996,-2.13106
49.50000,-14.84992,-2.10335
49.60000,-14.87999,-2.08124
49.70000,-14.90995,-2.05149
49.80000,-14.94002,-2.02723
49.90000,-14.96998,-2.00427
50.00000,-15.00005,-1.98421
50.10000,-15.02994,-1.96047
50.20000,-15.05996,-1.93349
50.30000,-15.09009,-1.91446
50.40000,-15.12005,-1.89785
50.50000,-15.15000,-1.88546
50.60000,-15.18002,-1.89578
50.70000,-15.21009,-1.92875
50.80000,-15.23993,-1.95985
50.90000,-15.27006,-1.99019
51.00000,-15.30001,-2.02480
51.10000,-15.33009,-2.06251
51.20000,-15.36004,-2.09702
51.30000,-15.39012,-2.13060
51.40000,-15.42007,-2.16484
51.50000,-15.45009,-2.19280
51.60000,-15.47998,-2.18243
51.70000,-15.51005,-2.15949
51.80000,-15.53995,-2.13229
51.90000,-15.57002,-2.09701
52.00000,-15.60004,-2.07073
52.10000,-15.63005,-2.04031
52.20000,-15.66001,-2.01000
52.30000,-15.69008,-1.98219
52.40000,-15.71998,-1.95478
52.50000,-15.74993,-1.93531
52.60000,-15.78006,-1.91153
52.70000,-15.81002,-1.89494
52.80000,-15.84009,-1.89445
52.90000,-15.86999,-1.93185
53.00000,-15.89994,-1.97397
53.10000,-15.93007,-2.01274
53.20000,-15.96003,-2.04711
53.30000,-15.98998,-2.08190
53.40000,-16.02000,-2.10473
53.50000,-16.05019,-2.10914
53.60000,-16.08015,-2.07982
53.70000,-16.11004,-2.05267
53.80000,-16.14012,-2.02605
53.90000,-16.17001,-1.99542
54.00000,-16.20003,-1.97119
54.10000,-16.22998,-1.94567
54.20000,-16.26005,-1.92349
54.30000,-16.29007,-1.90260
54.40000,-16.32002,-1.91149
54.50000,-16.34998,-1.95411
54.60000,-16.37999,-1.99367
54.70000,-16.41001,-2.03129
54.80000,-16.44002,-2.06915
54.90000,-16.47003,-2.10966
55.00000,-16.50011,-2.14646
55.10000,-16.53006,-2.18541
55.20000,-16.56002,-2.22425
55.30000,-16.59003,-2.26139
55.40000,-16.62011,-2.29061
55.50000,-16.65006,-2.24654
55.60000,-16.68007,-2.21845
55.70000,-16.71009,-2.18739
55.80000,-16.73998,-2.15027
55.90000,-16.77012,-2.13062
56.00000,-16.80001,-2.09546
56.10000,-16.82997,-2.06680
56.20000,-16.86004,-2.03811
56.30000,-16.89000,-2.01169
56.40000,-16.92013,-1.98650
56.50000,-16.95002,-1.99192
56.60000,-16.98016,-2.03765
56.70000,-17.01005,-2.07966
56.80000,-17.04007,-2.11523
56.90000,-17.07002,-2.16141
57.00000,-17.10004,-2.19804
57.10000,-17.12999,-2.23903
57.20000,-17.16007,-2.28318
57.30000,-17.19002,-2.32118
57.40000,-17.22003,-2.36182
57.50000,-17.25005,-2.40641
57.60000,-17.28000,-2.44506
57.70000,-17.31002,-2.48447
57.80000,-17.34003,-2.48264
57.90000,-17.37011,-2.43268
58.00000,-17.40000,-2.39079
58.10000,-17.43001,-2.35352
58.20000,-17.46009,-2.32085
58.30000,-17.49004,-2.29221
58.40000,-17.52006,-2.25318
58.50000,-17.55007,-2.21972
58.60000,-17.58015,-2.19618
58.70000,-17.61004,-2.15552
58.80000,-17.64006,-2.12788
58.90000,-17.67007,-2.10353
59.00000,-17.70008,-2.06969
59.10000,-17.73004,-2.04451
59.20000,-17.76011,-2.02562
59.30000,-17.79001,-2.00382
59.40000,-17.82008,-1.98522
59.50000,-17.85004,-1.97030
59.60000,-17.88005,-1.96572
59.70000,-17.91006,-1.96312
59.80000,-17.94008,-2.00263
59.90000,-17.97003,-2.05520
60.00000,-18.00005,-2.10322
60.10000,-18.03000,-2.14297
60.20000,-18.06002,-2.18799
60.30000,-18.08997,-2.23760
60.40000,-18.11998,-2.27671
60.50000,-18.15000,-2.31861
60.60000,-18.18007,-2.36155
60.70000,-18.21003,-2.40221
60.80000,-18.23998,-2.35551
60.90000,-18.27006,-2.32057
61.00000,-18.29995,-2.29508
61.10000,-18.33003,-2.25405
61.20000,-18.35998,-2.21719
61.30000,-18.39006,-2.18215
61.40000,-18.41995,-2.14924
61.50000,-18.44996,-2.11802
61.60000,-18.47998,-2.10687
61.70000,-18.50993,-2.07659
61.80000,-18.54001,-2.06253
61.90000,-18.56996,-2.06001
62.00000,-18.59992,-2.08018
62.10000,-18.62999,-2.13764
62.20000,-18.66000,-2.19477
62.30000,-18.69002,-2.23329
62.40000,-18.71991,-2.28268
62.50000,-18.74999,-2.32580
62.60000,-18.78000,-2.38144
62.70000,-18.80996,-2.42143
62.80000,-18.84009,-2.47226
62.90000,-18.87016,-2.51476
63.00000,-18.90012,-2.56077
63.10000,-18.93013,-2.61282
63.20000,-18.95997,-2.65643
63.30000,-18.99016,-2.69665
63.40000,-19.02000,-2.71787
63.50000,-19.05007,-2.68402
63.60000,-19.07997,-2.64367
63.70000,-19.11010,-2.60557
63.80000,-19.13993,-2.56971
63.90000,-19.17001,-2.53369
64.00000,-19.19996,-2.49418
64.10001,-19.23010,-2.45945
64.20000,-19.25993,-2.43125
64.30000,-19.29001,-2.39175
64.40000,-19.31996,-2.37496
64.50000,-19.35003,-2.35867
64.60001,-19.37999,-2.40396
64.70000,-19.40995,-2.45868
64.80000,-19.44008,-2.51445
64.90000,-19.46997,-2.56725
65.00000,-19.49999,-2.62015
65.10001,-19.53006,-2.67507
65.20000,-19.56008,-2.72496
65.30000,-19.59009,-2.77438
65.40000,-19.62010,-2.82898
65.50000,-19.65006,-2.91236
65.60001,-19.68001,-3.01568
65.66200,-19.69861,-3.14132
65.76200,-19.72850,-3.22091
65.86200,-19.75858,-3.21596
65.96201,-19.78847,-3.19870
66.06201,-19.81843,-3.17477
66.16200,-19.84862,-3.14918
66.26200,-19.87857,-3.12272
66.36200,-19.90871,-3.10108
66.46201,-19.93860,-3.07828
66.56201,-19.96862,-3.11230
66.66200,-19.99863,-3.16548
66.76200,-20.02859,-3.21643
66.86200,-20.05866,-3.26316
66.96201,-20.08861,-3.31220
67.06201,-20.11857,-3.36556
67.16200,-20.14870,-3.41523
67.26200,-20.17866,-3.46748
67.36200,-20.20873,-3.51525
67.46201,-20.23869,-3.56450
67.56201,-20.26870,-3.61414
67.66200,-20.29860,-3.66042
67.76200,-20.32861,-3.70820
67.86200,-20.35856,-3.75748
67.96201,-20.38858,-3.80579
68.06201,-20.41859,-3.85252
68.16200,-20.44867,-3.90285
68.26200,-20.47862,-3.95113
68.36200,-20.50864,-3.99559
68.46201,-20.53871,-4.03936
68.56201,-20.56866,-4.08795
68.66200,-20.59862,-4.15927
68.69000,-20.60705,-4.28674
68.70001,-20.61004,-4.43432
68.71001,-20.61303,-4.57527
68.72401,-20.61727,-4.71451
68.82401,-20.64723,-4.83643
68.92400,-20.67712,-4.88776
69.02400,-20.70720,-4.92752
69.12400,-20.73721,-4.93684
69.22401,-20.76729,-4.91384
69.32401,-20.79730,-4.86951
69.42400,-20.82731,-4.81546
69.52400,-20.85727,-4.77083
69.62400,-20.88722,-4.73686
69.72401,-20.91718,-4.69357
69.82401,-20.94725,-4.65400
69.92400,-20.97727,-4.62006
70.02400,-21.00722,-4.58228
70.12400,-21.03718,-4.54268
70.22401,-21.06725,-4.49949
70.32401,-21.09726,-4.46672
70.42400,-21.12728,-4.42044
70.52400,-21.15723,-4.38239
70.62400,-21.18731,-4.34749
70.72401,-21.21726,-4.31435
70.82401,-21.24727,-4.28474
70.92400,-21.27717,-4.25941
71.02400,-21.30724,-4.23298
71.12400,-21.33714,-4.20345
71.22401,-21.36721,-4.18326
71.32401,-21.39717,-4.22464
71.42400,-21.42724,-4.27876
71.52400,-21.45726,-4.33048
71.62400,-21.48727,-4.38291
71.72401,-21.51735,-4.43404
71.82401,-21.54730,-4.48823
71.92400,-21.57719,-4.53908
72.02400,-21.60715,-4.58933
72.12400,-21.63710,-4.64189
72.22401,-21.66718,-4.69299
72.32401,-21.69719,-4.74109
72.42400,-21.72727,-4.79304
72.52400,-21.75722,-4.83898
72.62400,-21.78718,-4.88301
72.72401,-21.81719,-4.85294
72.82401,-21.84726,-4.79959
72.92400,-21.87716,-4.75203
73.02400,-21.90729,-4.70631
73.12400,-21.93725,-4.65288
73.22401,-21.96726,-4.60737
73.32401,-21.99710,-4.56081
73.42400,-22.02729,-4.52141
73.52400,-22.05730,-4.48169
73.62400,-22.08720,-4.43553
73.72401,-22.11727,-4.39136
73.82401,-22.14723,-4.35698
73.92400,-22.17736,-4.33395
74.02400,-22.20732,-4.34602
74.12400,-22.23721,-4.37736
74.22401,-22.26728,-4.42075
74.32401,-22.29724,-4.47581
74.42400,-22.32725,-4.52726
74.52400,-22.35721,-4.57822
74.62400,-22.38716,-4.63371
74.72401,-22.41724,-4.68812
74.82401,-22.44725,-4.73490
74.92400,-22.47727,-4.79149
75.02400,-22.50728,-4.82284
75.12400,-22.53717,-4.80815
75.22401,-22.56731,-4.75354
75.32401,-22.59720,-4.71323
75.42400,-22.62734,-4.67462
75.52400,-22.65717,-4.63547
75.62400,-22.68731,-4.60390
75.72401,-22.71720,-4.58259
75.82401,-22.74721,-4.52595
75.92400,-22.77723,-4.49413
76.02400,-22.80724,-4.47531
76.12400,-22.83726,-4.47161
76.22401,-22.86715,-4.51103
76.32401,-22.89723,-4.56795
76.42400,-22.92712,-4.62479
76.52400,-22.95720,-4.67707
76.62400,-22.98715,-4.73430
76.72401,-23.01722,-4.78536
76.82401,-23.04724,-4.84464
76.92400,-23.07719,-4.89787
77.02400,-23.10721,-4.94957
77.12400,-23.13728,-4.96264
77.22401,-23.16718,-4.90515
77.32401,-23.19719,-4.85269
77.42400,-23.22732,-4.81620
77.52400,-23.25722,-4.77394
77.62400,-23.28729,-4.71520
77.72401,-23.31719,-4.66087
77.82401,-23.34726,-4.62263
77.92400,-23.37722,-4.58237
78.02400,-23.40717,-4.54545
78.12400,-23.43724,-4.53490
78.22401,-23.46720,-4.58298
78.32401,-23.49722,-4.63775
78.42400,-23.52723,-4.69796
78.52400,-23.55718,-4.75631
78.62400,-23.58720,-4.81004
78.72401,-23.61727,-4.87002
78.82401,-23.64717,-4.93388
78.92400,-23.67724,-4.98735
79.02400,-23.70726,-5.03758
79.12400,-23.73727,-4.99464
79.22401,-23.76716,-4.95252
79.32401,-23.79730,-4.89884
79.42400,-23.82725,-4.83778
79.52400,-23.85727,-4.78784
79.62400,-23.88722,-4.73964
79.72401,-23.91730,-4.69734
79.82401,-23.94719,-4.65494
79.92400,-23.97720,-4.61014
80.02400,-24.00710,-4.58205
80.12400,-24.03723,-4.57926
80.22401,-24.06719,-4.65088
80.32401,-24.09720,-4.71730
80.42400,-24.12722,-4.78002
80.52400,-24.15717,-4.84556
80.62400,-24.18724,-4.90904
80.72401,-24.21720,-4.97070
80.82401,-24.24721,-5.03078
80.92400,-24.27723,-5.09772
81.02400,-24.30718,-5.15278
81.12400,-24.33720,-5.21364
81.22401,-24.36721,-5.27959
81.32401,-24.39723,-5.33422
81.42400,-24.42724,-5.26579
81.52400,-24.45725,-5.21992
81.62400,-24.48715,-5.17426
81.72401,-24.51728,-5.13069
81.82401,-24.54724,-5.09008
81.92400,-24.57725,-5.03788
82.02400,-24.60733,-4.99396
82.12400,-24.63722,-4.95228
82.22401,-24.66724,-4.92402
82.32401,-24.69719,-4.89525
82.42400,-24.72720,-4.86375
82.52400,-24.75716,-4.85161
82.62400,-24.78723,-4.88904
82.72401,-24.81725,-4.95337
82.82401,-24.84720,-5.02343
82.92400,-24.87722,-5.08857
83.02400,-24.90723,-5.15093
83.12400,-24.93724,-5.20917
83.22401,-24.96726,-5.27758
83.32401,-24.99727,-5.33509
83.42400,-25.02723,-5.39560
83.52400,-25.05712,-5.45267
83.62400,-25.08726,-5.51019
83.72401,-25.11721,-5.56737
83.82401,-25.14723,-5.62203
83.92400,-25.17718,-5.67642
84.02400,-25.20731,-5.72241
84.12400,-25.23721,-5.75868
84.22401,-25.26728,-5.68932
84.32401,-25.29724,-5.63225
84.42400,-25.32731,-5.57900
84.52400,-25.35721,-5.53000
84.62400,-25.38722,-5.48071
84.72401,-25.41723,-5.42666
84.82401,-25.44725,-5.37962
84.92400,-25.47732,-5.32822
85.02400,-25.50734,-5.28021
85.12400,-25.53723,-5.24016
85.22401,-25.56737,-5.19484
85.32401,-25.59720,-5.14795
85.42400,-25.62715,-5.10922
85.52400,-25.65723,-5.08093
85.62400,-25.68712,-5.06007
85.72401,-25.71726,-5.06675
85.82401,-25.74727,-5.13495
85.92400,-25.77723,-5.19993
86.02400,-25.80730,-5.26638
86.12400,-25.83731,-5.33182
86.22401,-25.86727,-5.39549
86.32401,-25.89722,-5.45516
86.42400,-25.92724,-5.52332
86.52400,-25.95713,-5.58238
86.62400,-25.98715,-5.63955
86.72401,-26.01710,-5.70000
86.82401,-26.04706,-5.75834
86.92400,-26.07719,-5.81724
87.02400,-26.10714,-5.85256
87.12400,-26.13722,-5.77396
87.22401,-26.16735,-5.72716
87.32401,-26.19725,-5.67429
87.42400,-26.22720,-5.62756
87.52400,-26.25716,-5.57110
87.62400,-26.28729,-5.51899
87.72401,-26.31713,-5.47807
87.82401,-26.34720,-5.41811
87.92400,-26.37721,-5.36278
88.02400,-26.40723,-5.33388
88.12400,-26.43724,-5.30588
88.22401,-26.46726,-5.29401
88.32401,-26.49727,-5.36269
88.42400,-26.52723,-5.42246
88.52400,-26.55718,-5.47815
88.62400,-26.58714,-5.55682
88.72401,-26.61715,-5.61834
88.82401,-26.64710,-5.67708
88.92400,-26.67718,-5.74509
89.02400,-26.70713,-5.80589
89.12400,-26.73727,-5.86670
89.22401,-26.76722,-5.93563
89.32401,-26.79736,-5.99118
89.42400,-26.82731,-6.04384
89.52400,-26.85726,-6.09080
89.62400,-26.88734,-6.14889
89.72401,-26.91717,-6.19878
89.82401,-26.94719,-6.25670
89.89001,-26.96698,-6.41296
89.89800,-26.96937,-6.58116
89.90401,-26.97116,-6.71514
89.91200,-26.97355,-6.87347
89.92201,-26.97666,-7.01869
89.94200,-26.98264,-7.14370
90.04201,-27.01272,-7.14007
90.14201,-27.04261,-7.15469
90.24201,-27.07269,-7.16022
90.34200,-27.10264,-7.16669
90.44200,-27.13265,-7.16787
90.54201,-27.16273,-7.16579
90.64201,-27.19262,-7.16347
90.74201,-27.22276,-7.16342
90.84200,-27.25271,-7.17140
90.94200,-27.28261,-7.17141
91.04201,-27.31268,-7.16870
91.14201,-27.34264,-7.18039
91.24201,-27.37271,-7.18279
91.34200,-27.40260,-7.18216
91.44200,-27.43274,-7.18733
91.54201,-27.46263,-7.19057
91.64201,-27.49265,-7.20373
91.74201,-27.52260,-7.20270
91.84200,-27.55274,-7.20112
91.94200,-27.58257,-7.20025
92.04201,-27.61265,-7.19351
92.14201,-27.64260,-7.19815
92.24201,-27.67261,-7.21324
92.34200,-27.70251,-7.21667
92.44200,-27.73258,-7.21219
92.54201,-27.76260,-7.22104
92.64201,-27.79255,-7.22039
92.74201,-27.82269,-7.22411
92.84200,-27.85264,-7.23531
92.94200,-27.88265,-7.23589
93.04201,-27.91267,-7.18238
93.14201,-27.94256,-7.13010
93.24201,-27.97258,-7.08848
93.34200,-28.00265,-7.02010
93.44200,-28.03267,-6.97084
93.54201,-28.06256,-6.92857
93.64201,-28.09270,-6.86042
93.74201,-28.12265,-6.81529
93.84200,-28.15272,-6.76053
93.94200,-28.18262,-6.72283
94.04201,-28.21251,-6.68921
94.14201,-28.24265,-6.66490
94.24201,-28.27266,-6.62672
94.34200,-28.30267,-6.62165
94.44200,-28.33263,-6.68398
94.54201,-28.36264,-6.75959
94.64201,-28.39260,-6.82575
94.74201,-28.42261,-6.89296
94.84200,-28.45263,-6.95892
94.94200,-28.48258,-7.03059
95.04201,-28.51260,-7.09341
95.14201,-28.54237,-7.15337
95.24201,-28.57269,-7.22679
95.34200,-28.60270,-7.28547
95.44200,-28.63259,-7.34137
95.54201,-28.66267,-7.39270
95.64201,-28.69256,-7.42139
95.74201,-28.72270,-7.41167
95.84200,-28.75271,-7.41682
95.94200,-28.78278,-7.41404
96.04201,-28.81268,-7.41419
96.14201,-28.84263,-7.40988
96.24201,-28.87259,-7.43051
96.34200,-28.90254,-7.43194
96.44200,-28.93262,-7.43657
96.54201,-28.96257,-7.43379
96.64201,-28.99259,-7.42587
96.74201,-29.02266,-7.43438
96.84200,-29.05255,-7.43017
96.94200,-29.08257,-7.42399
97.04201,-29.11264,-7.42570
97.14201,-29.14266,-7.43996
97.24201,-29.17255,-7.44537
97.34200,-29.20263,-7.43596
97.44200,-29.23270,-7.43428
97.54201,-29.26254,-7.44977
97.64201,-29.29267,-7.44321
97.74201,-29.32268,-7.44794
97.84200,-29.35270,-7.44990
97.94200,-29.38271,-7.45465
98.04201,-29.41267,-7.45367
98.14201,-29.44274,-7.46965
98.24201,-29.47270,-7.47358
98.34200,-29.50265,-7.46564
98.44200,-29.53273,-7.47600
98.54201,-29.56250,-7.47487
98.64201,-29.59257,-7.46164
98.74201,-29.62265,-7.46918
98.84200,-29.65266,-7.48601
98.94200,-29.68268,-7.47424
99.04201,-29.71257,-7.48062
99.14201,-29.74265,-7.48826
99.24201,-29.77254,-7.48542
99.34200,-29.80261,-7.48311
99.44200,-29.83251,-7.46744
99.54201,-29.86270,-7.48240
99.64201,-29.89254,-7.48301
99.74201,-29.92261,-7.49944
99.84200,-29.95263,-7.49006
99.94200,-29.98264,-7.49718
100.04201,-30.01265,-7.51708
100.14201,-30.04267,-7.49344
100.24201,-30.07262,-7.49437
100.34200,-30.10258,-7.51288
100.44200,-30.13265,-7.50130
100.54201,-30.16261,-7.51088
100.64201,-30.19262,-7.51137
100.74201,-30.22257,-7.51622
100.84200,-30.25271,-7.52961
100.94200,-30.28261,-7.52111
101.04201,-30.31268,-7.52939
101.14201,-30.34263,-7.53866
101.24201,-30.37265,-7.52852
101.34200,-30.40266,-7.53274
101.44200,-30.43262,-7.53989
101.54201,-30.46263,-7.53514
101.64201,-30.49258,-7.53215
101.74201,-30.52266,-7.53831
101.84200,-30.55255,-7.54400
101.94200,-30.58257,-7.53390
102.04201,-30.61270,-7.54119
102.14201,-30.64260,-7.53472
102.24201,-30.67267,-7.53399
102.34200,-30.70257,-7.53808
102.44200,-30.73264,-7.54338
102.54201,-30.76253,-7.54174
102.64201,-30.79261,-7.55674
102.74201,-30.82262,-7.56617
102.84200,-30.85264,-7.55062
102.94200,-30.88259,-7.55641
103.04201,-30.91273,-7.57614
103.14201,-30.94268,-7.55647
103.24201,-30.97276,-7.55196
103.34200,-31.00259,-7.56086
103.44200,-31.03266,-7.56274
103.54201,-31.06262,-7.54788
103.64201,-31.09263,-7.55136
103.74201,-31.12265,-7.55596
103.84200,-31.15266,-7.56981
103.94200,-31.18262,-7.56007
104.04201,-31.21269,-7.55562
104.14201,-31.24271,-7.56234
104.24201,-31.27260,-7.56072
104.34200,-31.30262,-7.55711
104.44200,-31.33263,-7.57151
104.54201,-31.36259,-7.55703
104.64201,-31.39260,-7.55498
104.74201,-31.42255,-7.55990
104.84200,-31.45257,-7.57309
104.94200,-31.48258,-7.56219
105.04201,-31.51259,-7.56821
105.14201,-31.54261,-7.57244
105.24201,-31.57268,-7.55608
105.34200,-31.60264,-7.57948
105.44200,-31.63265,-7.58226
105.54201,-31.66255,-7.58009
105.64201,-31.69262,-7.57309
105.74201,-31.72257,-7.58119
105.84200,-31.75253,-7.58157
105.94200,-31.78254,-7.59829
106.04201,-31.81262,-7.58363
106.14201,-31.84269,-7.59435
106.24201,-31.87271,-7.58769
106.34200,-31.90266,-7.58883
106.44200,-31.93268,-7.60045
106.54201,-31.96263,-7.60719
106.64201,-31.99258,-7.60753
106.74201,-32.02266,-7.59007
106.84200,-32.05267,-7.58542
106.94200,-32.08269,-7.59544
107.04201,-32.11264,-7.59289
107.14201,-32.14272,-7.59115
107.24201,-32.17261,-7.60498
107.34200,-32.20263,-7.59409
107.44200,-32.23264,-7.59729
107.54201,-32.26272,-7.59275
107.64201,-32.29255,-7.59869
107.74201,-32.32262,-7.60246
107.84200,-32.35252,-7.60663
107.94200,-32.38265,-7.60167
108.04201,-32.41255,-7.59656
108.14201,-32.44268,-7.60551
108.24201,-32.47258,-7.61055
108.34200,-32.50271,-7.61284
108.44200,-32.53273,-7.61077
108.54201,-32.56262,-7.61198
108.64201,-32.59263,-7.60751
108.74201,-32.62265,-7.60823
108.84200,-32.65254,-7.60647
108.94201,-32.68267,-7.61635
109.04201,-32.71263,-7.61428
109.14201,-32.74270,-7.60049
109.24201,-32.77260,-7.59811
109.34200,-32.80262,-7.60141
109.44201,-32.83263,-7.60331
109.54201,-32.86258,-7.60876
109.64201,-32.89266,-7.60687
109.74201,-32.92261,-7.59891
109.84200,-32.95262,-7.60742
109.94201,-32.98258,-7.61920
110.04201,-33.01259,-7.60881
110.14201,-33.04267,-7.60949
110.24201,-33.07256,-7.60109
110.34200,-33.10270,-7.60420
110.44201,-33.13265,-7.61733
110.54201,-33.16266,-7.61254
110.64201,-33.19268,-7.59603
110.74201,-33.22257,-7.61113
110.84200,-33.25271,-7.60905
110.94201,-33.28254,-7.61349
111.04201,-33.31256,-7.62805
111.14201,-33.34257,-7.61985
111.24201,-33.37259,-7.62508
111.34200,-33.40254,-7.62720
111.44201,-33.43261,-7.63411
111.54201,-33.46269,-7.61928
111.64201,-33.49264,-7.63289
111.74201,-33.52272,-7.64446
111.84200,-33.55261,-7.63520
111.94201,-33.58263,-7.63796
112.04201,-33.61264,-7.64696
112.14201,-33.64260,-7.64500
112.24201,-33.67261,-7.65697
112.34200,-33.70263,-7.65646
112.44201,-33.73270,-7.65119
112.54201,-33.76265,-7.66372
112.64201,-33.79261,-7.65484
112.74201,-33.82262,-7.65638
112.84200,-33.85252,-7.67329
112.94201,-33.88247,-7.68135
113.04201,-33.91267,-7.69053
113.14201,-33.94256,-7.69866
113.24201,-33.97264,-7.73413
113.29201,-33.98770,-7.86801
113.30801,-33.99248,-7.99689
113.35201,-34.00570,-8.12337
113.45200,-34.03571,-8.16694
113.55200,-34.06567,-8.18533
113.65201,-34.09568,-8.18218
113.75201,-34.12552,-8.17184
113.85201,-34.15565,-8.17904
113.95200,-34.18554,-8.18832
114.05200,-34.21556,-8.20595
114.15201,-34.24569,-8.20774
114.25201,-34.27571,-8.20407
114.35201,-34.30566,-8.20810
114.45200,-34.33562,-8.20456
114.55200,-34.36569,-8.21033
114.65201,-34.39564,-8.20618
114.75201,-34.42566,-8.20239
114.85201,-34.45562,-8.20237
114.95200,-34.48563,-8.20877
115.05200,-34.51552,-8.20410
115.15201,-34.54554,-8.22403
115.25201,-34.57561,-8.22607
115.35201,-34.60551,-8.22184
115.45200,-34.63564,-8.24197
115.55200,-34.66565,-8.25405
115.65201,-34.69567,-8.25311
115.75201,-34.72574,-8.25669
115.85201,-34.75558,-8.27958
115.95200,-34.78571,-8.27837
116.05200,-34.81560,-8.28572
116.15201,-34.84574,-8.28368
116.25201,-34.87569,-8.28537
116.35201,-34.90565,-8.29596
116.45200,-34.93566,-8.31591
116.55200,-34.96562,-8.31258
116.65201,-34.99569,-8.32016
116.75201,-35.02571,-8.30247
116.85201,-35.05560,-8.30097
116.95200,-35.08561,-8.31708
117.05200,-35.11557,-8.32065
117.15201,-35.14558,-8.31324
117.25201,-35.17560,-8.31334
117.35201,-35.20555,-8.32599
117.45200,-35.23557,-8.33684
117.55200,-35.26552,-8.34998
117.65201,-35.29566,-8.36998
117.75201,-35.32561,-8.36173
117.85201,-35.35562,-8.37122
117.95200,-35.38558,-8.38654
118.05200,-35.41559,-8.39632
118.15201,-35.44567,-8.39794
118.25201,-35.47562,-8.40763
118.35201,-35.50558,-8.42045
118.45200,-35.53565,-8.43316
118.55200,-35.56567,-8.45050
118.65201,-35.59568,-8.43702
118.75201,-35.62564,-8.44440
118.85201,-35.65565,-8.44807
118.95200,-35.68572,-8.41078
119.05200,-35.71568,-8.41817
119.15201,-35.74569,-8.43896
119.25201,-35.77565,-8.43850
119.35201,-35.80560,-8.38958
119.45200,-35.83562,-8.30577
119.55200,-35.86563,-8.23846
119.65201,-35.89564,-8.17652
119.75201,-35.92572,-8.22068
119.85201,-35.95567,-8.29171
119.95200,-35.98568,-8.33344
120.05200,-36.01576,-8.39939
120.15201,-36.04566,-8.45493
120.25201,-36.07567,-8.44307
120.35201,-36.10563,-8.43913
120.45200,-36.13564,-8.46406
120.55200,-36.16565,-8.48508
120.65201,-36.19567,-8.50174
120.75201,-36.22562,-8.49677
120.85201,-36.25563,-8.40251
120.95200,-36.28559,-8.31279
121.05200,-36.31560,-8.22800
121.15201,-36.34550,-8.15593
121.25201,-36.37563,-8.04875
121.35201,-36.40565,-7.99213
121.45200,-36.43548,-7.94676
121.55201,-36.46556,-8.01648
121.65201,-36.49551,-8.10591
121.75201,-36.52558,-8.17576
121.85201,-36.55554,-8.21985
121.95200,-36.58555,-8.23405
122.05201,-36.61575,-8.29103
122.15201,-36.64564,-8.33696
122.25201,-36.67566,-8.27607
122.35201,-36.70567,-8.21236
122.45200,-36.73563,-8.13169
122.55201,-36.76558,-8.04673
122.65201,-36.79566,-7.97648
122.75201,-36.82567,-7.94806
122.85201,-36.85568,-8.00557
122.95200,-36.88570,-8.01519
123.05201,-36.91577,-8.02930
123.15201,-36.94567,-8.06994
123.25201,-36.97568,-8.13889
123.35201,-37.00558,-8.20984
123.45200,-37.03571,-8.29690
123.55201,-37.06560,-8.38539
123.65201,-37.09574,-8.46001
123.75201,-37.12557,-8.53100
123.85201,-37.15564,-8.40445
123.95200,-37.18560,-8.31519
124.05201,-37.21568,-8.23960
124.15201,-37.24563,-8.15452
124.25201,-37.27565,-8.08308
124.35201,-37.30572,-7.99822
124.45200,-37.33567,-7.92903
124.55201,-37.36569,-7.85735
124.65201,-37.39564,-7.78544
124.75201,-37.42560,-7.84129
124.85201,-37.45555,-7.92547
124.95200,-37.48557,-7.99711
125.05201,-37.51558,-8.08618
125.15201,-37.54559,-8.14129
125.25201,-37.57567,-8.18093
125.35201,-37.60568,-8.15152
125.45200,-37.63558,-8.08344
125.55201,-37.66553,-7.98907
125.65201,-37.69567,-7.90188
125.75201,-37.72556,-7.83442
125.85201,-37.75563,-7.73081
125.95200,-37.78571,-7.67816
126.05201,-37.81572,-7.60360
126.15201,-37.84574,-7.53804
126.25201,-37.87563,-7.53914
126.35201,-37.90571,-7.53601
126.45200,-37.93566,-7.50635
126.55201,-37.96568,-7.49880
126.65201,-37.99557,-7.49532
126.75201,-38.02564,-7.51749
126.85201,-38.05554,-7.56632
126.95200,-38.08561,-7.64296
127.05201,-38.11557,-7.73216
127.15201,-38.14570,-7.81612
127.25201,-38.17560,-7.89430
127.35201,-38.20567,-7.96970
127.45200,-38.23563,-8.05207
127.55201,-38.26558,-8.12858
127.65201,-38.29566,-8.20711
127.75201,-38.32561,-8.27361
127.85201,-38.35556,-8.22305
127.95200,-38.38575,-8.11167
128.05200,-38.41571,-8.03098
128.15201,-38.44567,-7.94234
128.25200,-38.47562,-7.86768
128.35201,-38.50576,-7.77436
128.45201,-38.53565,-7.68287
128.55200,-38.56560,-7.59465
128.65201,-38.59562,-7.51787
128.75200,-38.62563,-7.45872
128.85201,-38.65559,-7.46465
128.95201,-38.68566,-7.47241
129.05200,-38.71555,-7.53701
129.15201,-38.74569,-7.60075
129.25200,-38.77559,-7.68990
129.35201,-38.80554,-7.77596
129.45201,-38.83549,-7.85935
129.55200,-38.86563,-7.94716
129.65201,-38.89570,-8.03839
129.75200,-38.92565,-8.11933
129.85201,-38.95561,-8.19928
129.95201,-38.98562,-8.28010
130.05200,-39.01564,-8.35183
130.15201,-39.04559,-8.41225
130.25200,-39.07567,-8.30792
130.33602,-39.10084,-8.18223
130.43601,-39.13079,-8.09518
130.53601,-39.16081,-7.98741
130.63600,-39.19082,-7.91440
130.73601,-39.22078,-7.83565
130.83602,-39.25079,-7.73451
130.93601,-39.28087,-7.64576
131.03601,-39.31076,-7.54834
131.13600,-39.34077,-7.51304
131.23600,-39.37079,-7.47430
131.33602,-39.40080,-7.45380
131.43600,-39.43076,-7.45069
131.53602,-39.46089,-7.44741
131.63600,-39.49084,-7.45573
131.73600,-39.52086,-7.47205
131.83602,-39.55082,-7.53212
131.93600,-39.58083,-7.62485
132.03602,-39.61078,-7.71372
132.13600,-39.64080,-7.79348
132.23600,-39.67087,-7.88441
132.33602,-39.70095,-7.97038
132.43600,-39.73090,-8.04277
132.53602,-39.76092,-7.91747
132.63600,-39.79087,-7.85397
132.73600,-39.82089,-7.80116
132.83602,-39.85084,-7.77634
132.93600,-39.88091,-7.73425
133.03602,-39.91075,-7.78742
133.13600,-39.94088,-7.87541
133.23600,-39.97084,-7.96538
133.33602,-40.00073,-8.04913
133.43600,-40.03081,-8.12877
133.53602,-40.06082,-8.21896
133.63600,-40.09083,-8.29432
133.73600,-40.12085,-8.32287
133.83602,-40.15086,-8.34626
133.93600,-40.18082,-8.36650
134.03602,-40.21083,-8.36607
134.13600,-40.24079,-8.38693
134.23600,-40.27080,-8.40788
134.33602,-40.30081,-8.41297
134.43600,-40.33083,-8.44455
134.53602,-40.36090,-8.46154
134.63600,-40.39092,-8.47766
134.73600,-40.42099,-8.50716
134.83602,-40.45083,-8.53093
134.93600,-40.48084,-8.49244
135.03602,-40.51080,-8.44666
135.13600,-40.54087,-8.40219
135.23600,-40.57082,-8.34272
135.33602,-40.60084,-8.25583
135.43600,-40.63086,-8.16530
135.53602,-40.66093,-8.09220
135.63600,-40.69082,-8.00635
135.73600,-40.72084,-7.91668
135.83602,-40.75085,-7.84906
135.93600,-40.78080,-7.84031
136.03602,-40.81088,-7.92865
136.13600,-40.84083,-7.97864
136.23600,-40.87091,-8.04881
136.33602,-40.90081,-8.14097
136.43600,-40.93082,-8.13365
136.53602,-40.96077,-8.05119
136.63600,-40.99091,-7.97136
136.73600,-41.02086,-7.88549
136.83602,-41.05093,-7.82124
136.93600,-41.08083,-7.77301
137.03602,-41.11096,-7.78052
137.13600,-41.14080,-7.87350
137.23600,-41.17069,-7.96302
137.33602,-41.20071,-8.05868
137.43600,-41.23060,-8.14929
137.53602,-41.26079,-8.23337
137.63600,-41.29063,-8.17456
137.73600,-41.32076,-8.08767
137.83602,-41.35084,-7.98952
137.93600,-41.38085,-7.90639
138.03602,-41.41087,-7.81555
138.13600,-41.44088,-7.75001
138.23600,-41.47096,-7.72859
138.33602,-41.50079,-7.80578
138.43600,-41.53092,-7.90130
138.53602,-41.56088,-7.99241
138.63600,-41.59089,-8.09077
138.73600,-41.62091,-8.17477
138.83602,-41.65092,-8.26331
138.93600,-41.68088,-8.22972
139.03602,-41.71095,-8.13728
139.13600,-41.74084,-8.04029
139.23600,-41.77086,-7.95802
139.33602,-41.80076,-7.87391
139.43600,-41.83089,-7.86351
139.53602,-41.86072,-7.95040
139.63600,-41.89062,-8.04367
139.73600,-41.92069,-8.13262
139.83602,-41.95082,-8.22960
139.93600,-41.98078,-8.31539
140.03602,-42.01085,-8.41450
140.13600,-42.04093,-8.50411
140.23600,-42.07083,-8.54695
140.33602,-42.10090,-8.59217
140.43600,-42.13085,-8.58117
140.53602,-42.16093,-8.49334
140.63600,-42.19088,-8.38573
140.73600,-42.22089,-8.28344
140.83602,-42.25085,-8.19370
140.93600,-42.28081,-8.11092
141.03602,-42.31088,-8.00385
141.13600,-42.34077,-7.92711
141.23600,-42.37079,-7.86466
141.33602,-42.40080,-7.94419
141.43600,-42.43081,-8.03763
141.53602,-42.46083,-8.13926
141.63600,-42.49078,-8.22941
141.73600,-42.52080,-8.32410
141.83602,-42.55075,-8.42176
141.93600,-42.58065,-8.51192
142.03602,-42.61066,-8.59392
142.13600,-42.64092,-8.65131
142.23600,-42.67081,-8.72534
142.33602,-42.70076,-8.79400
142.43600,-42.73096,-8.85377
142.53602,-42.76085,-8.76306
142.63600,-42.79081,-8.65279
142.73600,-42.82094,-8.55922
142.83602,-42.85084,-8.46833
142.93600,-42.88085,-8.35550
143.03602,-42.91081,-8.28168
143.13600,-42.94094,-8.21525
143.23600,-42.97095,-8.09622
143.33602,-43.00085,-8.02234
143.43600,-43.03092,-7.95269
143.53602,-43.06082,-7.84835
143.63600,-43.09071,-7.84575
143.73600,-43.12085,-7.92865
143.83602,-43.15074,-8.02535
143.93600,-43.18087,-8.12107
144.03602,-43.21083,-8.21841
144.13600,-43.24091,-8.30212
144.23600,-43.27092,-8.24641
144.33602,-43.30081,-8.17794
144.43600,-43.33083,-8.06973
144.53602,-43.36084,-7.96166
144.63600,-43.39091,-7.90583
144.73600,-43.42093,-7.88628
144.83602,-43.45088,-7.98083
144.93600,-43.48096,-8.08588
145.03602,-43.51086,-8.17341
145.13600,-43.54087,-8.27142
145.23600,-43.57076,-8.36585
145.33602,-43.60077,-8.28177
145.43600,-43.63079,-8.18539
145.53602,-43.66080,-8.06607
145.63600,-43.69082,-7.98172
145.73600,-43.72095,-7.88088
145.83602,-43.75085,-7.81136
145.93600,-43.78080,-7.76600
146.03602,-43.81082,-7.69423
146.13600,-43.84089,-7.70052
146.23600,-43.87085,-7.79804
146.33602,-43.90080,-7.88673
146.43600,-43.93087,-7.98631
146.53602,-43.96089,-8.08771
146.63600,-43.99096,-8.17046
146.71200,-44.01374,-8.04515
146.81202,-44.04376,-7.99487
146.91200,-44.07365,-7.89490
147.01202,-44.10373,-7.89370
147.11200,-44.13368,-7.85075
147.21200,-44.16364,-7.89337
147.31202,-44.19353,-7.90836
147.41200,-44.22366,-7.89360
147.51202,-44.25350,-7.95804
147.61200,-44.28357,-8.04753
147.71200,-44.31353,-8.14269
147.81202,-44.34360,-8.23826
147.91200,-44.37367,-8.33348
148.01202,-44.40363,-8.42733
148.11200,-44.43365,-8.51791
148.15600,-44.44686,-8.39278
148.25602,-44.47681,-8.27394
148.35600,-44.50695,-8.18428
148.45602,-44.53690,-8.09407
148.55600,-44.56685,-7.97463
148.65600,-44.59681,-7.90588
148.75602,-44.62688,-7.84631
148.85600,-44.65684,-7.86643
148.95602,-44.68685,-7.94922
149.05600,-44.71681,-8.01581
149.15600,-44.74688,-8.07379
149.25602,-44.77690,-8.16626
149.35600,-44.80673,-8.15101
149.45602,-44.83680,-8.02386
149.55600,-44.86670,-7.94882
149.65600,-44.89689,-7.87124
149.75602,-44.92679,-7.78024
149.85600,-44.95674,-7.69508
149.95602,-44.98694,-7.67935
150.05600,-45.01689,-7.75606
150.15600,-45.04685,-7.84206
150.25602,-45.07680,-7.94016
150.35600,-45.10687,-8.04250
150.45602,-45.13683,-8.14228
150.55600,-45.16684,-8.25075
150.65600,-45.19686,-8.25448
150.75602,-45.22687,-8.13364
150.85600,-45.25683,-8.06345
150.95602,-45.28690,-8.01848
151.05600,-45.31680,-8.05749
151.15600,-45.34687,-8.15047
151.25602,-45.37676,-8.26451
151.35600,-45.40690,-8.36751
151.45602,-45.43685,-8.46598
151.55600,-45.46693,-8.56427
151.65600,-45.49682,-8.66013
151.75602,-45.52678,-8.71958
151.85600,-45.55673,-8.78617
151.95602,-45.58687,-8.85753
152.05600,-45.61682,-8.91098
152.15600,-45.64683,-8.96264
152.25602,-45.67691,-9.01791
152.35600,-45.70686,-8.93603
152.45602,-45.73687,-8.85929
152.49400,-45.74830,-8.73360
152.59402,-45.77825,-8.66069
152.69400,-45.80826,-8.54252
152.79400,-45.83828,-8.43449
152.89402,-45.86823,-8.36112
152.99400,-45.89819,-8.34798
153.09402,-45.92820,-8.36478
153.19400,-45.95822,-8.37015
153.29400,-45.98811,-8.43809
153.39402,-46.01825,-8.49530
153.49400,-46.04826,-8.59569
153.59402,-46.07822,-8.67127
153.69400,-46.10823,-8.65272
153.79400,-46.13818,-8.60378
153.89402,-46.16820,-8.55222
153.99400,-46.19815,-8.51334
154.09402,-46.22823,-8.42494
154.19400,-46.25824,-8.34446
154.29400,-46.28825,-8.38787
154.39402,-46.31833,-8.50184
154.49400,-46.34828,-8.59421
154.59402,-46.37824,-8.70939
154.69400,-46.40832,-8.81574
154.79400,-46.43821,-8.91740
154.89402,-46.46822,-9.02477
154.99400,-46.49817,-9.11558
155.09402,-46.52831,-9.16800
155.19400,-46.55820,-9.21652
155.29400,-46.58822,-9.25831
155.39402,-46.61824,-9.14752
155.46600,-46.63988,-9.02080
155.56602,-46.66978,-8.90792
155.66600,-46.69991,-8.81520
155.76600,-46.72992,-8.71221
155.85200,-46.75575,-8.58629
155.95202,-46.78571,-8.51794
156.05200,-46.81560,-8.57421
156.15202,-46.84555,-8.67069
156.25202,-46.87569,-8.68559
156.35200,-46.90558,-8.75289
156.45202,-46.93559,-8.85292
156.55200,-46.96567,-8.91865
156.65202,-46.99562,-8.96883
156.75202,-47.02564,-9.05957
156.85200,-47.05577,-8.98462
156.95202,-47.08567,-8.89302
157.04600,-47.11383,-8.76713
157.14602,-47.14384,-8.70490
157.24600,-47.17386,-8.66623
157.34602,-47.20381,-8.76846
157.44602,-47.23377,-8.88470
157.54600,-47.26390,-8.98810
157.64602,-47.29379,-9.08778
157.74600,-47.32381,-9.19355
157.84602,-47.35388,-9.26274
157.94602,-47.38383,-9.31478
158.04600,-47.41385,-9.36878
158.14602,-47.44381,-9.42202
158.24600,-47.47376,-9.46893
158.34602,-47.50377,-9.40590
158.44602,-47.53379,-9.33166
158.54600,-47.56380,-9.28072
158.64602,-47.59388,-9.21617
158.74600,-47.62383,-9.12642
158.84602,-47.65396,-9.11922
158.94602,-47.68380,-9.21555
159.04600,-47.71393,-9.32762
159.14602,-47.74383,-9.42116
159.24600,-47.77384,-9.50768
159.34602,-47.80386,-9.55707
159.44602,-47.83387,-9.58828
159.54600,-47.86371,-9.62199
159.64602,-47.89378,-9.66477
159.74600,-47.92374,-9.70181
159.84602,-47.95381,-9.72359
159.94602,-47.98376,-9.72839
160.04600,-48.01384,-9.76905
160.14602,-48.04391,-9.81817
160.24600,-48.07387,-9.84440
160.34602,-48.10382,-9.75407
160.44602,-48.13384,-9.67704
160.54600,-48.16385,-9.56617
160.64602,-48.19381,-9.47592
160.74600,-48.22382,-9.40042
160.84602,-48.25383,-9.45665
160.94602,-48.28397,-9.57167
161.04600,-48.31386,-9.67250
161.14602,-48.34388,-9.67338
161.24600,-48.37389,-9.54652
161.34602,-48.40373,-9.55467
161.44602,-48.43386,-9.64295
161.54600,-48.46381,-9.74596
161.64602,-48.49371,-9.85381
161.74600,-48.52372,-9.92976
161.84002,-48.55207,-9.80345
161.89002,-48.56695,-9.67820
161.96800,-48.59039,-9.55192
162.06802,-48.62052,-9.47337
162.16802,-48.65054,-9.35926
162.26800,-48.68049,-9.23671
162.36802,-48.71050,-9.14952
162.46800,-48.74034,-9.04597
162.56802,-48.77042,-9.12646
162.66802,-48.80049,-9.24389
162.76800,-48.83033,-9.36817
162.86802,-48.86034,-9.43638
162.96800,-48.89042,-9.34146
163.06802,-48.92048,-9.26168
163.16802,-48.95038,-9.15525
163.25202,-48.97561,-9.02964
163.35200,-49.00569,-8.90893
163.45202,-49.03558,-8.83741
163.55200,-49.06554,-8.73486
163.65202,-49.09555,-8.67463
163.75202,-49.12557,-8.74043
163.85200,-49.15558,-8.86123
163.95202,-49.18559,-8.96900
164.05200,-49.21555,-9.08263
164.15202,-49.24562,-9.19644
164.25202,-49.27563,-9.30927
164.35200,-49.30553,-9.41337
164.45202,-49.33566,-9.44828
164.55200,-49.36562,-9.33541
164.65202,-49.39570,-9.21547
164.75202,-49.42559,-9.10737
164.85200,-49.45554,-9.01128
164.89802,-49.46942,-8.88589
164.91600,-49.47486,-8.76027
165.01600,-49.50487,-8.81534
165.11602,-49.53494,-8.78394
165.21600,-49.56484,-8.66834
165.31602,-49.59491,-8.57651
165.41600,-49.62487,-8.48315
165.51600,-49.65494,-8.41010
165.61602,-49.68478,-8.51064
165.71600,-49.71479,-8.61804
165.81602,-49.74487,-8.73125
165.91600,-49.77482,-8.83633
166.01600,-49.80483,-8.94836
166.11602,-49.83479,-9.04243
166.21600,-49.86486,-9.14622
166.31602,-49.89475,-9.25736
166.41600,-49.92477,-9.36710
166.51600,-49.95479,-9.47057
166.61602,-49.98480,-9.57099
166.71600,-50.01482,-9.68255
166.81602,-50.04489,-9.71574
166.83602,-50.05081,-9.58431
166.93600,-50.08094,-9.51078
167.03602,-50.11084,-9.40906
167.11402,-50.13427,-9.28357
167.21400,-50.16429,-9.18257
167.31402,-50.19424,-9.09610
167.41400,-50.22426,-9.02229
167.51400,-50.25415,-8.93283
167.61402,-50.28422,-8.85191
167.71400,-50.31418,-8.80302
167.81402,-50.34431,-8.82789
167.91400,-50.37415,-8.92196
168.01400,-50.40416,-8.93963
168.11402,-50.43424,-8.96327
168.21400,-50.46425,-8.88970
168.31402,-50.49421,-8.76272
168.41400,-50.52422,-8.66392
168.51400,-50.55411,-8.57813
168.61402,-50.58419,-8.55910
168.71400,-50.61420,-8.65501
168.81402,-50.64422,-8.77477
168.91400,-50.67423,-8.88040
169.01400,-50.70437,-8.99158
169.11402,-50.73426,-9.10951
169.21400,-50.76422,-9.21693
169.31402,-50.79417,-9.32598
169.41400,-50.82424,-9.43288
169.51400,-50.85426,-9.55041
169.61402,-50.88421,-9.47285
169.67802,-50.90347,-9.34737
169.77802,-50.93336,-9.24283
169.87800,-50.96349,-9.15948
169.97802,-50.99339,-9.05765
170.07800,-51.02346,-8.95037
170.17802,-51.05348,-8.90157
170.27802,-51.08349,-8.94925
170.37800,-51.11345,-9.03758
170.47802,-51.14352,-9.15757
170.57800,-51.17341,-9.26265
170.67802,-51.20343,-9.37735
170.77802,-51.23338,-9.49506
170.87800,-51.26346,-9.60985
170.91602,-51.27494,-9.47424
170.98202,-51.29461,-9.34858
171.08200,-51.32468,-9.26117
171.16400,-51.34931,-9.13505
171.26400,-51.37927,-9.02707
171.36402,-51.40922,-8.92779
171.46400,-51.43918,-8.84922
171.56402,-51.46931,-8.74397
171.66400,-51.49927,-8.66210
171.76400,-51.52923,-8.68447
171.86402,-51.55918,-8.79872
171.96400,-51.58925,-8.91484
172.06402,-51.61921,-9.02542
172.16400,-51.64922,-9.13987
172.26400,-51.67923,-9.26407
172.36402,-51.70925,-9.36388
172.40600,-51.72186,-9.23739
172.48800,-51.74644,-9.10971
172.58602,-51.77591,-8.98175
172.68600,-51.80587,-8.90125
172.75802,-51.82757,-8.77315
172.85800,-51.85741,-8.70201
172.95800,-51.88742,-8.60058
173.04600,-51.91379,-8.47482
173.14602,-51.94386,-8.36375
173.24600,-51.97388,-8.30333
173.34602,-52.00383,-8.29433
173.44602,-52.03378,-8.36478
173.54600,-52.06368,-8.45960
173.64602,-52.09381,-8.53941
173.74600,-52.12383,-8.58818
173.84602,-52.15378,-8.48909
173.94602,-52.18398,-8.41677
174.04600,-52.21393,-8.32021
174.14602,-52.24389,-8.22834
174.24600,-52.27384,-8.18533
174.34602,-52.30379,-8.23511
174.44602,-52.33387,-8.35502
174.54600,-52.36382,-8.46457
174.64602,-52.39384,-8.58451
174.74600,-52.42391,-8.67948
174.84602,-52.45381,-8.57112
174.94602,-52.48382,-8.47123
175.04600,-52.51378,-8.37643
175.14602,-52.54385,-8.25986
175.24600,-52.57369,-8.21469
175.34602,-52.60376,-8.20351
175.44602,-52.63371,-8.28341
175.54600,-52.66379,-8.39913
175.64602,-52.69374,-8.51418
175.74600,-52.72388,-8.63565
175.84602,-52.75377,-8.74603
175.90202,-52.77063,-8.62040
176.00202,-52.80059,-8.53269
176.09602,-52.82875,-8.40730
176.19602,-52.85888,-8.32243
176.29600,-52.88890,-8.21674
176.39602,-52.91879,-8.10509
176.49600,-52.94892,-8.06727
176.59602,-52.97894,-8.15814
176.69602,-53.00889,-8.25831
176.79600,-53.03884,-8.37538
176.89602,-53.06892,-8.49293
176.99600,-53.09882,-8.52629
177.09602,-53.12877,-8.53228
177.19602,-53.15884,-8.44655
177.29600,-53.18874,-8.33094
177.39602,-53.21881,-8.25740
177.49600,-53.24871,-8.27670
177.59602,-53.27879,-8.39253
177.69602,-53.30886,-8.50756
177.79600,-53.33887,-8.62255
177.89602,-53.36889,-8.74028
177.99600,-53.39884,-8.85258
178.09602,-53.42891,-8.96220
178.19602,-53.45881,-9.00728
178.29600,-53.48877,-8.91418
178.39602,-53.51878,-8.78751
178.48402,-53.54526,-8.66222
178.58402,-53.57522,-8.56588
178.68400,-53.60524,-8.47277
178.78402,-53.63519,-8.35303
178.88400,-53.66526,-8.34482
178.98402,-53.69522,-8.45417
179.08402,-53.72523,-8.57511
179.18400,-53.75531,-8.68430
179.28202,-53.78454,-8.55635
179.38200,-53.81467,-8.45418
179.48202,-53.84457,-8.36526
179.58202,-53.87465,-8.26519
179.68200,-53.90466,-8.16933
179.78202,-53.93461,-8.22459
179.88200,-53.96469,-8.34096
179.98202,-53.99453,-8.44724
180.08202,-54.02460,-8.56254
180.18200,-54.05455,-8.67420
180.28202,-54.08457,-8.78309
180.38200,-54.11452,-8.73988
180.41602,-54.12475,-8.61433
180.51600,-54.15488,-8.50071
180.61602,-54.18484,-8.37741
180.71600,-54.21484,-8.28763
180.81602,-54.24492,-8.21904
180.91602,-54.27488,-8.28709
181.01600,-54.30489,-8.36215
181.11602,-54.33478,-8.40593
181.21600,-54.36492,-8.45166
181.31602,-54.39481,-8.47054
181.41602,-54.42495,-8.36809
181.51600,-54.45478,-8.31645
181.61602,-54.48492,-8.39216
181.71600,-54.51481,-8.51208
181.81602,-54.54470,-8.63580
181.91602,-54.57490,-8.74713
182.01600,-54.60479,-8.80867
182.06002,-54.61801,-8.68128
182.16000,-54.64814,-8.56189
182.26002,-54.67804,-8.46104
182.36002,-54.70793,-8.37012
182.46000,-54.73807,-8.27639
182.56002,-54.76802,-8.26977
182.66000,-54.79803,-8.36724
182.76002,-54.82817,-8.47281
182.84002,-54.85214,-8.34754
182.94000,-54.88204,-8.27843
183.04002,-54.91211,-8.22115
183.14002,-54.94195,-8.13942
183.24000,-54.97208,-8.19293
183.34002,-55.00198,-8.30626
183.44000,-55.03211,-8.42844
183.54002,-55.06207,-8.53202
183.64002,-55.09214,-8.64854
183.74000,-55.12203,-8.55124
183.84002,-55.15205,-8.43576
183.94000,-55.18206,-8.40331
184.04002,-55.21195,-8.48264
184.14002,-55.24197,-8.56854
184.24000,-55.27204,-8.64346
184.29200,-55.28765,-8.51734
184.39202,-55.31766,-8.39604
184.49200,-55.34762,-8.31511
184.59002,-55.37698,-8.18899
184.69000,-55.40699,-8.08299
184.79002,-55.43713,-8.19841
184.89002,-55.46702,-8.30386
184.99000,-55.49709,-8.40051
185.09002,-55.52711,-8.52470
185.19000,-55.55706,-8.64047
185.29002,-55.58707,-8.59516
185.39002,-55.61709,-8.59510
185.49000,-55.64698,-8.60389
185.59002,-55.67706,-8.55511
185.69000,-55.70701,-8.45202
185.79002,-55.73709,-8.38828
185.89002,-55.76704,-8.48297
185.99000,-55.79706,-8.59007
186.09002,-55.82701,-8.52214
186.18600,-55.85577,-8.39661
186.28602,-55.88579,-8.29773
186.38600,-55.91586,-8.36402
186.48600,-55.94581,-8.38579
186.58602,-55.97583,-8.42731
186.68600,-56.00572,-8.54840
186.78602,-56.03586,-8.64913
186.88600,-56.06569,-8.76215
186.98002,-56.09397,-8.88798
187.08000,-56.12411,-9.00556
187.18002,-56.15400,-9.10174
187.28002,-56.18407,-9.11166
187.33202,-56.19962,-8.98505
187.43200,-56.22969,-8.86411
187.53202,-56.25965,-8.79994
187.63200,-56.28960,-8.77337
187.73202,-56.31961,-8.87320
187.83202,-56.34969,-8.91541
187.92002,-56.37606,-8.78719
188.01202,-56.40368,-8.65739
188.11202,-56.43364,-8.56036
188.21200,-56.46359,-8.50710
188.31202,-56.49366,-8.47428
188.41200,-56.52368,-8.43849
188.51202,-56.55364,-8.51784
188.61202,-56.58364,-8.61742
188.71200,-56.61360,-8.58094
188.81202,-56.64362,-8.49909
188.91200,-56.67357,-8.53672
189.01202,-56.70364,-8.57649
189.11202,-56.73372,-8.50182
189.21200,-56.76356,-8.43569
189.31202,-56.79369,-8.53888
189.41200,-56.82365,-8.65457
189.51202,-56.85372,-8.77102
189.61202,-56.88361,-8.87174
189.71200,-56.91350,-8.97560
189.81202,-56.94370,-9.05622
189.91200,-56.97359,-8.97119
190.01202,-57.00367,-8.86412
190.11202,-57.03362,-8.74167
190.21200,-57.06364,-8.61682
190.27602,-57.08283,-8.48902
190.28602,-57.08582,-8.35433
190.29200,-57.08762,-8.22386
190.29800,-57.08941,-8.06396
190.30402,-57.09120,-7.89132
190.31002,-57.09305,-7.72929
190.31602,-57.09485,-7.60280
190.41602,-57.12474,-7.54661
190.51600,-57.15481,-7.60978
190.61602,-57.18483,-7.66694
190.71600,-57.21478,-7.73837
190.81602,-57.24486,-7.79776
190.91602,-57.27476,-7.85108
191.01600,-57.30489,-7.91548
191.11602,-57.33484,-7.99352
191.21600,-57.36480,-8.05992
191.31602,-57.39475,-8.13237
191.41602,-57.42483,-8.19900
191.51600,-57.45478,-8.26891
191.61602,-57.48485,-8.34184
191.71600,-57.51481,-8.42048
191.81602,-57.54488,-8.49194
191.91602,-57.57490,-8.56499
192.01600,-57.60479,-8.64369
192.11602,-57.63486,-8.70197
192.21600,-57.66488,-8.75347
192.31602,-57.69490,-8.82671
192.41602,-57.72485,-8.89732
192.51600,-57.75486,-8.95769
192.60200,-57.78064,-8.82817
192.66802,-57.80042,-8.70076
192.76800,-57.83050,-8.61796
192.86802,-57.86039,-8.53161
192.96800,-57.89053,-8.49808
193.06802,-57.92048,-8.58667
193.16802,-57.95038,-8.67465
193.26800,-57.98045,-8.75848
193.36802,-58.01047,-8.83207
193.46800,-58.04042,-8.80820
193.56802,-58.07049,-8.73252
193.66802,-58.10045,-8.64299
193.76800,-58.13040,-8.69603
193.86802,-58.16041,-8.78554
193.96800,-58.19043,-8.87436
194.06802,-58.22039,-8.95677
194.16802,-58.25040,-8.88020
194.24200,-58.27264,-8.75358
194.33802,-58.30140,-8.62466
194.43800,-58.33142,-8.50570
194.53802,-58.36149,-8.40716
194.63802,-58.39150,-8.41340
194.73800,-58.42140,-8.51213
194.83802,-58.45153,-8.59735
194.93800,-58.48142,-8.68288
195.03802,-58.51132,-8.77220
195.13802,-58.54140,-8.86647
195.23800,-58.57159,-8.95166
195.33802,-58.60136,-8.98587
195.41602,-58.62480,-8.85829
195.49000,-58.64698,-8.73068
195.57400,-58.67221,-8.60395
195.67402,-58.70235,-8.51238
195.77400,-58.73219,-8.42165
195.87402,-58.76219,-8.31712
195.97402,-58.79227,-8.31238
196.07400,-58.82217,-8.39897
196.17402,-58.85224,-8.49381
196.27400,-58.88219,-8.58839
196.37402,-58.91221,-8.68062
196.47402,-58.94216,-8.70834
196.57000,-58.97098,-8.58313
196.67002,-59.00106,-8.47996
196.77000,-59.03107,-8.38256
196.87002,-59.06115,-8.27771
196.97002,-59.09104,-8.22613
197.07000,-59.12105,-8.24206
197.14602,-59.14378,-8.11210
197.19000,-59.15699,-7.98497
197.21600,-59.16476,-7.85908
197.23002,-59.16894,-7.72810
197.24200,-59.17271,-7.59477
197.25802,-59.17743,-7.45969
197.28202,-59.18467,-7.33125
197.29800,-59.18945,-7.19557
197.31602,-59.19483,-7.06623
197.34202,-59.20261,-6.93458
197.35802,-59.20745,-6.80149
197.37402,-59.21223,-6.66822
197.39002,-59.21707,-6.54268
197.40600,-59.22192,-6.41354
197.42802,-59.22838,-6.28153
197.46000,-59.23800,-6.15273
197.52200,-59.25654,-6.02450
197.57400,-59.27214,-5.95669
