Time,Extension,Load
(sec),(mm),(N)
0.00000,-0.00006,7.14598
0.10000,-0.00114,9.43259
0.20000,-0.00490,8.42676
0.30000,-0.00921,9.12199
0.40000,-0.01285,8.53056
0.50000,-0.01644,7.88625
0.60000,-0.01985,8.29163
0.70000,-0.02320,8.43538
0.80000,-0.02661,8.82392
0.90000,-0.03007,8.64336
1.00000,-0.03330,8.09305
1.10000,-0.03671,7.81849
1.20000,-0.04006,7.90505
1.30000,-0.04323,8.12008
1.40000,-0.04664,8.34255
1.50000,-0.05004,8.84116
1.60000,-0.05327,8.62495
1.70000,-0.05668,8.13418
1.80000,-0.06009,8.69976
1.90000,-0.06326,7.88390
2.00000,-0.06661,7.90622
2.10000,-0.07007,7.97633
2.20000,-0.07324,8.11773
2.30000,-0.07665,7.75112
2.40000,-0.08012,8.33589
2.50000,-0.08335,7.93873
2.60000,-0.08663,8.15180
2.70000,-0.09004,8.18666
2.80000,-0.09333,8.08169
2.90000,-0.09656,7.53804
3.00000,-0.10009,7.14245
3.10000,-0.10338,7.67161
3.20000,-0.10660,7.42446
3.30000,-0.11001,7.91014
3.40000,-0.11336,7.31636
3.50000,-0.11653,7.28110
3.60000,-0.12000,7.44561
3.70000,-0.12341,6.70025
3.80000,-0.12663,6.71082
3.90000,-0.12998,7.63322
4.00000,-0.13345,7.26270
4.10000,-0.13656,7.50201
4.20000,-0.14003,6.65834
4.30000,-0.14344,6.49540
4.40000,-0.14666,6.88355
4.50000,-0.15007,6.87219
4.60000,-0.15348,6.61799
4.70000,-0.15665,6.29643
4.80000,-0.15994,6.35910
4.90000,-0.16334,6.19498
5.00000,-0.16663,6.74568
5.10000,-0.16992,5.62588
5.20000,-0.17339,6.10999
5.30000,-0.17674,6.46211
5.40000,-0.17991,5.88125
5.50000,-0.18331,6.02891
5.60000,-0.18666,5.53148
5.70000,-0.18989,4.68115
5.80000,-0.19330,4.94436
5.90000,-0.19677,4.27850
6.00000,-0.19994,3.94558
6.10000,-0.20334,3.80144
6.20000,-0.20669,3.04511
6.30000,-0.20992,2.49206
6.40000,-0.21327,1.64369
6.50000,-0.21674,0.45299
6.60000,-0.21997,0.32452
6.70000,-0.22331,-2.17478
6.80000,-0.22672,-5.21694
6.90000,-0.22995,-7.54860
7.00000,-0.23324,-11.68785
7.10000,-0.23665,-15.15302
7.20000,-0.23994,-20.84723
7.30000,-0.24334,-26.89160
7.40000,-0.24669,-33.97000
7.50000,-0.25010,-43.60057
7.60000,-0.25327,-53.11482
7.70000,-0.25668,-66.02882
7.80000,-0.25996,-83.15023
7.90000,-0.26319,-102.66831
8.00000,-0.26666,-127.37339
8.10000,-0.27007,-154.06387
8.20000,-0.27324,-182.46050
8.30000,-0.27665,-217.30924
8.40000,-0.28005,-253.27976
8.50000,-0.28322,-289.77003
8.60000,-0.28663,-331.31959
8.70000,-0.29004,-375.92463
8.80000,-0.29327,-420.78467
8.90000,-0.29668,-469.40008
9.00000,-0.30008,-524.12176
9.10000,-0.30325,-575.00503
9.20000,-0.30660,-631.57426
9.30000,-0.31001,-692.22320
9.40000,-0.31330,-751.44055
9.50000,-0.31659,-812.12204
9.60000,-0.32005,-879.50435
9.70000,-0.32328,-946.41345
9.80000,-0.32651,-1012.26382
9.90000,-0.32998,-1085.85618
10.00000,-0.33327,-1157.05580
10.10000,-0.33650,-1225.83983
10.20000,-0.34002,-1307.18267
10.30000,-0.34331,-1386.22718
10.40000,-0.34648,-1458.56105
10.50000,-0.34995,-1535.90720
10.60000,-0.35336,-1621.97836
10.70000,-0.35647,-1700.74645
10.80000,-0.35999,-1790.93089
10.90000,-0.36340,-1883.66696
11.00000,-0.36663,-1971.56481
11.10000,-0.36998,-2064.04477
11.20000,-0.37339,-2163.33810
11.30000,-0.37655,-2253.74121
11.40000,-0.37990,-2348.29076
11.50000,-0.38337,-2450.11672
11.60000,-0.38660,-2548.63929
11.70000,-0.38995,-2648.02277
11.80000,-0.39341,-2759.39014
11.90000,-0.39658,-2862.46482
12.00000,-0.39987,-2965.81443
12.10000,-0.40328,-3077.74898
12.20000,-0.40663,-3187.65379
12.30000,-0.40980,-3291.24555
12.40000,-0.41338,-3408.87867
12.50000,-0.41667,-3527.87189
12.60000,-0.41984,-3632.67809
12.70000,-0.42331,-3749.71144
12.80000,-0.42666,-3870.23613
12.90000,-0.42989,-3985.24962
13.00000,-0.43329,-4100.82676
13.10000,-0.43670,-4225.77597
13.20000,-0.43993,-4345.49153
13.30000,-0.44328,-4467.33944
13.40000,-0.44663,-4597.42397
13.50000,-0.44992,-4720.21177
13.60000,-0.45320,-4845.78237
13.70000,-0.45667,-4977.95232
13.80000,-0.45996,-5104.12417
13.90000,-0.46331,-5240.02239
14.00000,-0.46660,-5371.35713
14.10000,-0.46995,-5506.04649
14.20000,-0.47317,-5635.69367
14.30000,-0.47664,-5780.16788
14.40000,-0.47993,-5918.68609
14.50000,-0.48328,-6054.68452
14.60000,-0.48669,-6199.83077
14.70000,-0.48992,-6345.74220
14.80000,-0.49314,-6483.36187
14.90000,-0.49661,-6632.81456
15.00000,-0.49996,-6780.37405
15.10000,-0.50319,-6924.75215
15.20000,-0.50666,-7078.54927
15.30000,-0.51000,-7229.19926
15.40000,-0.51317,-7373.77629
15.50000,-0.51664,-7530.92393
15.60000,-0.51999,-7687.59847
15.70000,-0.52322,-7833.16568
15.80000,-0.52663,-7995.56971
15.90000,-0.53003,-8155.16785
16.00000,-0.53326,-8309.05661
16.10000,-0.53661,-8466.88822
16.20000,-0.54002,-8637.16602
16.30000,-0.54319,-8791.59868
16.40000,-0.54654,-8949.86317
16.50000,-0.55000,-9118.70077
16.60000,-0.55329,-9280.13176
16.70000,-0.55658,-9438.68607
16.80000,-0.56005,-9616.04863
16.90000,-0.56322,-9778.33048
17.00000,-0.56645,-9937.08670
17.10000,-0.56997,-10110.62935
17.20000,-0.57326,-10280.66799
17.30000,-0.57649,-10432.03101
17.40000,-0.58002,-10617.89170
17.50000,-0.58331,-10788.39824
17.60000,-0.58654,-10947.82948
17.70000,-0.58994,-11120.22921
17.80000,-0.59335,-11296.53379
17.90000,-0.59646,-11456.59238
18.00000,-0.59993,-11625.57304
18.10000,-0.60334,-11804.48830
18.20000,-0.60656,-11970.50810
18.30000,-0.60991,-12142.06144
18.40000,-0.61338,-12322.68736
18.50000,-0.61655,-12489.17431
18.60000,-0.61990,-12658.13559
18.70000,-0.62331,-12837.35335
18.80000,-0.62659,-13012.04711
18.90000,-0.62982,-13179.55852
19.00000,-0.63341,-13366.43696
19.10000,-0.63652,-13537.41586
19.20000,-0.63981,-13702.19886
19.30000,-0.64328,-13890.39606
19.40000,-0.64656,-14060.92495
19.50000,-0.64985,-14232.30022
19.60000,-0.65332,-14417.73474
19.70000,-0.65661,-14597.17602
19.80000,-0.65984,-14762.77560
19.90000,-0.66324,-14947.72732
20.00000,-0.66659,-15126.88547
20.10000,-0.66988,-15295.07637
20.20000,-0.67323,-15475.48324
20.30000,-0.67664,-15663.37943
20.40000,-0.67993,-15838.36228
20.50000,-0.68321,-16016.00051
20.60000,-0.68662,-16195.45966
20.70000,-0.68991,-16375.99021
20.80000,-0.69326,-16547.39529
20.90000,-0.69673,-16736.12148
21.00000,-0.69990,-16914.81173
21.10000,-0.70330,-17099.46990
21.20000,-0.70665,-17280.86174
21.30000,-0.70988,-17454.16373
21.40000,-0.71323,-17637.51656
21.50000,-0.71670,-17829.53590
21.60000,-0.71987,-18000.34940
21.70000,-0.72321,-18188.41547
21.80000,-0.72662,-18384.17798
21.90000,-0.72985,-18557.53362
22.00000,-0.73314,-18731.54342
22.10000,-0.73661,-18933.77602
22.20000,-0.73984,-19110.63939
22.30000,-0.74324,-19286.40008
22.40000,-0.74659,-19476.89652
22.50000,-0.74994,-19670.75765
22.60000,-0.75323,-19850.48056
22.70000,-0.75658,-20029.39135
22.80000,-0.75992,-20220.61348
22.90000,-0.76315,-20394.82445
23.00000,-0.76662,-20574.08988
23.10000,-0.76997,-20760.33652
23.20000,-0.77320,-20944.44782
23.30000,-0.77661,-21130.23102
23.40000,-0.78001,-21320.16122
23.50000,-0.78318,-21486.52673
23.60000,-0.78647,-21670.18950
23.70000,-0.79006,-21870.02301
23.80000,-0.79323,-22048.09934
23.90000,-0.79652,-22223.02556
24.00000,-0.80004,-22429.85964
24.10000,-0.80321,-22603.69211
24.20000,-0.80650,-22779.13541
24.30000,-0.80997,-22975.02160
24.40000,-0.81326,-23163.81335
24.50000,-0.81649,-23329.37717
24.60000,-0.81995,-23525.86985
24.70000,-0.82324,-23720.40898
24.80000,-0.82647,-23891.22397
24.90000,-0.82994,-24079.36156
25.00000,-0.83335,-24275.62624
25.10000,-0.83651,-24444.47130
25.20000,-0.83992,-24626.17755
25.30000,-0.84327,-24816.49220
25.40000,-0.84656,-24996.83648
25.50000,-0.84985,-25171.82231
25.60000,-0.85344,-25362.55419
25.70000,-0.85648,-25527.31037
25.80000,-0.85989,-25705.01566
25.90000,-0.86336,-25898.59664
26.00000,-0.86659,-26071.44713
26.10000,-0.86988,-26255.83410
26.20000,-0.87329,-26444.11325
26.30000,-0.87651,-26617.35117
26.40000,-0.87980,-26795.13693
26.50000,-0.88327,-26986.56321
26.60000,-0.88656,-27166.17882
26.70000,-0.88985,-27342.16452
26.80000,-0.89320,-27528.86117
26.90000,-0.89654,-27716.40718
27.00000,-0.89989,-27887.21621
27.10000,-0.90312,-28061.78927
27.20000,-0.90665,-28248.21174
27.30000,-0.90988,-28422.99342
27.40000,-0.91322,-28594.79487
27.50000,-0.91669,-28792.57798
27.60000,-0.91986,-28957.55768
27.70000,-0.92327,-29130.90587
27.80000,-0.92662,-29311.07879
27.90000,-0.92985,-29481.14276
28.00000,-0.93325,-29652.36306
28.10000,-0.93666,-29835.20925
28.20000,-0.93989,-30010.30385
28.30000,-0.94330,-30192.68513
28.40000,-0.94665,-30367.38634
28.50000,-0.94982,-30533.68330
28.60000,-0.95316,-30708.24742
28.70000,-0.95663,-30901.66152
28.80000,-0.95980,-31067.44587
28.90000,-0.96321,-31251.63019
29.00000,-0.96662,-31438.33578
29.10000,-0.96991,-31614.28273
29.20000,-0.97313,-31787.89616
29.30000,-0.97660,-31967.93497
29.40000,-0.97995,-32145.50316
29.50000,-0.98312,-32310.28020
29.60000,-0.98659,-32492.37537
29.70000,-0.98999,-32681.27739
29.80000,-0.99316,-32842.66293
29.90000,-0.99663,-33015.06341
30.00000,-1.00004,-33201.07460
30.10000,-1.00321,-33357.49507
30.20000,-1.00656,-33520.70451
30.30000,-1.01002,-33712.15463
30.40000,-1.01313,-33877.42639
30.50000,-1.01666,-34047.77348
30.60000,-1.02001,-34232.06210
30.70000,-1.02324,-34391.35849
30.80000,-1.02665,-34561.82778
30.90000,-1.03005,-34735.76605
31.00000,-1.03322,-34900.99013
31.10000,-1.03651,-35061.76174
31.20000,-1.03998,-35245.81194
31.30000,-1.04321,-35411.33702
31.40000,-1.04650,-35573.51828
31.50000,-1.05002,-35760.20598
31.60000,-1.05331,-35932.77931
31.70000,-1.05642,-36085.27482
31.80000,-1.05989,-36262.61950
31.90000,-1.06330,-36442.94739
32.00000,-1.06641,-36597.89562
32.10000,-1.06987,-36764.97936
32.20000,-1.07340,-36960.73592
32.30000,-1.07651,-37097.63288
32.40000,-1.07992,-37273.34738
32.50000,-1.08333,-37454.04184
32.60000,-1.08655,-37610.20005
32.70000,-1.08990,-37774.75655
32.80000,-1.09337,-37953.79400
32.90000,-1.09660,-38108.25050
33.00000,-1.09989,-38265.74683
33.10000,-1.10330,-38443.08853
33.20000,-1.10658,-38608.30069
33.30000,-1.10993,-38774.09101
33.40000,-1.11328,-38935.47654
33.50000,-1.11651,-39102.08642
33.60000,-1.11998,-39266.02006
33.70000,-1.12321,-39422.76239
33.80000,-1.12661,-39600.10111
33.90000,-1.12978,-39760.75053
34.00000,-1.13325,-39933.47883
34.10000,-1.13660,-40112.34343
34.20000,-1.13983,-40267.77446
34.30000,-1.14324,-40436.25891
34.40000,-1.14658,-40601.56941
34.50000,-1.14981,-40758.52931
34.60000,-1.15322,-40927.84822
34.70000,-1.15663,-41102.83554
34.80000,-1.15992,-41258.28445
34.90000,-1.16332,-41432.53565
35.00000,-1.16661,-41592.45789
35.10000,-1.16984,-41741.39202
35.20000,-1.17325,-41909.28042
35.30000,-1.17660,-42084.36012
35.40000,-1.17983,-42236.92119
35.50000,-1.18329,-42413.74731
35.60000,-1.18664,-42576.68257
35.70000,-1.18999,-42741.77551
35.80000,-1.19328,-42893.81504
35.90000,-1.19669,-43063.75682
36.00000,-1.19992,-43218.56499
36.10000,-1.20320,-43376.53816
36.20000,-1.20667,-43550.09794
36.30000,-1.20990,-43709.08737
36.40000,-1.21313,-43857.60427
36.50000,-1.21666,-44031.31604
36.60000,-1.21994,-44193.79234
36.70000,-1.22305,-44334.95402
36.80000,-1.22652,-44510.97846
36.90000,-1.23005,-44691.74445
37.00000,-1.23304,-44821.37263
37.10000,-1.23669,-44998.89314
37.20000,-1.23997,-45168.17033
37.30000,-1.24314,-45317.66176
37.40000,-1.24661,-45480.57616
37.50000,-1.25008,-45659.70600
37.60000,-1.25319,-45808.22587
37.70000,-1.25660,-45960.49786
37.80000,-1.26000,-46126.85442
37.90000,-1.26317,-46278.03266
38.00000,-1.26658,-46434.12530
38.10000,-1.27005,-46603.59621
38.20000,-1.27322,-46754.61352
38.30000,-1.27651,-46905.01094
38.40000,-1.27997,-47071.39134
38.50000,-1.28332,-47226.87304
38.60000,-1.28643,-47371.66464
38.70000,-1.28996,-47539.31761
38.80000,-1.29325,-47705.06918
38.90000,-1.29636,-47833.20129
39.00000,-1.29994,-48016.36338
39.10000,-1.30329,-48179.80826
39.20000,-1.30652,-48326.02739
39.30000,-1.30993,-48485.93771
39.40000,-1.31328,-48653.57578
39.50000,-1.31651,-48791.55159
39.60000,-1.31985,-48955.02329
39.70000,-1.32332,-49129.14634
39.80000,-1.32661,-49286.17477
39.90000,-1.32990,-49435.66024
40.00000,-1.33325,-49592.83769
40.10000,-1.33659,-49746.27495
40.20000,-1.33994,-49910.20262
40.30000,-1.34317,-50051.06926
40.40000,-1.34664,-50229.29311
40.50000,-1.34981,-50368.72029
40.60000,-1.35334,-50535.24375
40.70000,-1.35662,-50699.31149
40.80000,-1.35997,-50849.62249
40.90000,-1.36332,-51007.84898
41.00000,-1.36655,-51154.01149
41.10000,-1.36978,-51303.79200
41.20000,-1.37331,-51475.16131
41.30000,-1.37659,-51634.87196
41.40000,-1.37988,-51776.40915
41.50000,-1.38335,-51938.59339
41.60000,-1.38652,-52085.00028
41.70000,-1.38975,-52228.14083
41.80000,-1.39327,-52400.43998
41.90000,-1.39656,-52562.29639
42.00000,-1.39985,-52710.08015
42.10000,-1.40326,-52879.42886
42.20000,-1.40667,-53030.46107
42.30000,-1.40996,-53184.47948
42.40000,-1.41318,-53331.57778
42.50000,-1.41665,-53500.73576
42.60000,-1.41988,-53643.12530
42.70000,-1.42323,-53802.96707
42.80000,-1.42670,-53969.25211
42.90000,-1.42999,-54114.80069
43.00000,-1.43321,-54252.98810
43.10000,-1.43662,-54426.23496
43.20000,-1.43985,-54572.95179
43.30000,-1.44308,-54707.25298
43.40000,-1.44661,-54883.86750
43.50000,-1.44990,-55057.77001
43.60000,-1.45312,-55175.88854
43.70000,-1.45677,-55358.71983
43.80000,-1.45994,-55505.38301
43.90000,-1.46311,-55640.55443
44.00000,-1.46670,-55811.34558
44.10000,-1.47010,-55978.28627
44.20000,-1.47315,-56106.52566
44.30000,-1.47662,-56259.47118
44.40000,-1.48003,-56426.82910
44.50000,-1.48314,-56563.79461
44.60000,-1.48655,-56715.64341
44.70000,-1.49007,-56891.85262
44.80000,-1.49324,-57044.04116
44.90000,-1.49653,-57192.27791
45.00000,-1.50000,-57347.26787
45.10000,-1.50329,-57501.79887
45.20000,-1.50640,-57647.07923
45.30000,-1.50998,-57816.17165
45.40000,-1.51321,-57976.74656
45.50000,-1.51644,-58113.22331
45.60000,-1.52003,-58292.69886
45.70000,-1.52326,-58447.03913
45.80000,-1.52655,-58594.71560
45.90000,-1.52995,-58752.26259
46.00000,-1.53318,-58908.34332
46.10000,-1.53647,-59052.60444
46.20000,-1.53994,-59210.44350
46.30000,-1.54329,-59368.24083
46.40000,-1.54663,-59515.78617
46.50000,-1.54992,-59659.49297
46.60000,-1.55327,-59806.91910
46.70000,-1.55656,-59948.17615
46.80000,-1.55985,-60109.41863
46.90000,-1.56326,-60257.86996
47.00000,-1.56666,-60419.95883
47.10000,-1.56983,-60548.71678
47.20000,-1.57342,-60726.32074
47.30000,-1.57659,-60869.37189
47.40000,-1.57988,-61010.58722
47.50000,-1.58323,-61175.52519
47.60000,-1.58651,-61335.98685
47.70000,-1.58986,-61483.10304
47.80000,-1.59333,-61647.30191
47.90000,-1.59662,-61803.60913
48.00000,-1.59997,-61958.76002
48.10000,-1.60326,-62113.14201
48.20000,-1.60642,-62259.62639
48.30000,-1.60983,-62416.33892
48.40000,-1.61336,-62590.86132
48.50000,-1.61653,-62734.03168
48.60000,-1.61994,-62889.08124
48.70000,-1.62328,-63055.30071
48.80000,-1.62657,-63200.68240
48.90000,-1.62986,-63351.48215
49.00000,-1.63327,-63504.04620
49.10000,-1.63668,-63677.13809
49.20000,-1.63991,-63805.58014
49.30000,-1.64325,-63958.12035
49.40000,-1.64672,-64124.67957
49.50000,-1.64989,-64258.07476
49.60000,-1.65318,-64396.49463
49.70000,-1.65671,-64580.36304
49.80000,-1.65982,-64721.85254
49.90000,-1.66316,-64857.57232
50.00000,-1.66675,-65035.62331
50.10000,-1.66986,-65193.00342
50.20000,-1.67315,-65326.24364
50.30000,-1.67668,-65501.91045
50.40000,-1.67979,-65639.27531
50.50000,-1.68325,-65791.81552
50.60000,-1.68672,-65959.51915
50.70000,-1.69001,-66117.68603
50.80000,-1.69312,-66241.21070
50.90000,-1.69665,-66410.58922
51.00000,-1.69988,-66559.97634
51.10000,-1.70304,-66692.53111
51.20000,-1.70663,-66865.18192
51.30000,-1.71010,-67038.78045
51.40000,-1.71321,-67170.39943
51.50000,-1.71662,-67322.83831
51.60000,-1.72002,-67486.87625
51.70000,-1.72319,-67623.93713
51.80000,-1.72642,-67759.74631
51.90000,-1.73013,-67951.52426
52.00000,-1.73312,-68082.48162
52.10000,-1.73653,-68229.06733
52.20000,-1.74011,-68410.84957
52.30000,-1.74328,-68553.04241
52.40000,-1.74645,-68694.81206
52.50000,-1.74992,-68858.80232
52.60000,-1.75315,-69008.69012
52.70000,-1.75644,-69159.38258
52.80000,-1.75996,-69331.31814
52.90000,-1.76331,-69494.86732
53.00000,-1.76666,-69646.89493
53.10000,-1.76983,-69792.24086
53.20000,-1.77318,-69953.24492
53.30000,-1.77659,-70108.81305
53.40000,-1.77981,-70260.68568
53.50000,-1.78328,-70423.01893
53.60000,-1.78657,-70587.12840
53.70000,-1.78992,-70723.55151
53.80000,-1.79339,-70899.38521
53.90000,-1.79655,-71039.96277
54.00000,-1.79996,-71200.23370
54.10000,-1.80331,-71357.80454
54.20000,-1.80660,-71512.14480
54.30000,-1.80995,-71663.23066
54.40000,-1.81342,-71824.68772
54.50000,-1.81658,-71966.82096
54.60000,-1.81999,-72124.72558
54.70000,-1.82328,-72287.31513
54.80000,-1.82651,-72431.08749
54.90000,-1.82986,-72587.59141
55.00000,-1.83333,-72766.35766
55.10000,-1.83649,-72904.09207
55.20000,-1.83990,-73064.83984
55.30000,-1.84313,-73214.35213
55.40000,-1.84654,-73384.19557
55.50000,-1.84989,-73549.15738
55.60000,-1.85341,-73708.12297
55.70000,-1.85664,-73864.60900
55.80000,-1.85981,-74016.04652
55.90000,-1.86322,-74167.81187
56.00000,-1.86657,-74328.45235
56.10000,-1.86974,-74477.55337
56.20000,-1.87332,-74650.35319
56.30000,-1.87679,-74833.54807
56.40000,-1.87984,-74956.10118
56.50000,-1.88331,-75114.82239
56.60000,-1.88678,-75304.31747
56.70000,-1.88971,-75424.77250
56.80000,-1.89329,-75577.60477
56.90000,-1.89664,-75764.13155
57.00000,-1.89981,-75905.14421
57.10000,-1.90340,-76073.18759
57.20000,-1.90687,-76240.64088
57.30000,-1.90986,-76388.12065
57.40000,-1.91314,-76519.92440
57.50000,-1.91667,-76700.52648
57.60000,-1.91978,-76855.51047
57.70000,-1.92313,-76999.78352
57.80000,-1.92672,-77179.41999
57.90000,-1.92995,-77340.72804
58.00000,-1.93311,-77480.70359
58.10000,-1.93646,-77639.66322
58.20000,-1.93981,-77803.40314
58.30000,-1.94298,-77952.58760
58.40000,-1.94657,-78120.05281
58.50000,-1.95009,-78321.56420
58.60000,-1.95314,-78435.21237
58.70000,-1.95667,-78611.52887
58.80000,-1.96002,-78780.87163
58.90000,-1.96325,-78913.96880
59.00000,-1.96654,-79072.71385
59.10000,-1.97000,-79252.54703
59.20000,-1.97329,-79398.45920
59.30000,-1.97664,-79551.18418
59.40000,-1.98005,-79726.83907
59.50000,-1.98328,-79874.30692
59.60000,-1.98657,-80027.46105
59.70000,-1.98985,-80174.27921
59.80000,-1.99320,-80344.48624
59.90000,-1.99673,-80513.39388
60.00000,-1.99984,-80647.25995
60.10000,-2.00343,-80837.33916
60.20000,-2.00642,-80988.36541
60.30000,-2.00988,-81137.97307
60.40000,-2.01329,-81318.64667
60.50000,-2.01652,-81474.74527
60.60000,-2.01993,-81645.84637
60.70000,-2.02328,-81807.33323
60.80000,-2.02651,-81959.73039
60.90000,-2.02985,-82127.74992
61.00000,-2.03320,-82290.89379
61.10000,-2.03649,-82442.45052
61.20000,-2.04002,-82628.17264
61.30000,-2.04325,-82794.74974
61.40000,-2.04653,-82933.54511
61.50000,-2.05000,-83100.19970
61.60000,-2.05329,-83277.44603
61.70000,-2.05640,-83409.60741
61.80000,-2.05993,-83585.90007
61.90000,-2.06328,-83748.73400
62.00000,-2.06662,-83922.61863
62.10000,-2.06997,-84083.40812
62.20000,-2.07344,-84258.87823
62.30000,-2.07661,-84406.81696
62.40000,-2.07984,-84555.45306
62.50000,-2.08325,-84723.63949
62.60000,-2.08653,-84885.27536
62.70000,-2.08976,-85037.67848
62.80000,-2.09341,-85226.01128
62.90000,-2.09670,-85396.26598
63.00000,-2.09981,-85527.42600
63.10000,-2.10322,-85697.52574
63.20000,-2.10668,-85882.06172
63.30000,-2.10967,-86002.39754
63.40000,-2.11338,-86188.57265
63.50000,-2.11661,-86366.33158
63.60000,-2.11984,-86505.35941
63.70000,-2.12336,-86685.00781
63.80000,-2.12677,-86861.02629
63.90000,-2.12976,-86997.98584
64.00000,-2.13311,-87146.34180
64.10001,-2.13670,-87346.10677
64.20000,-2.13981,-87503.14116
64.30000,-2.14321,-87654.75750
64.40000,-2.14680,-87843.97244
64.50000,-2.14991,-88016.93320
64.60001,-2.15314,-88155.80010
64.70000,-2.15655,-88322.63350
64.80000,-2.15990,-88502.80046
64.90000,-2.16312,-88663.57803
65.00000,-2.16665,-88826.53117
65.10001,-2.17012,-89033.89573
65.20000,-2.17305,-89157.42040
65.30000,-2.17658,-89332.37791
65.40000,-2.17987,-89504.26579
65.50000,-2.18315,-89662.18233
65.60001,-2.18656,-89832.40128
65.70001,-2.18997,-90012.90202
65.80000,-2.19332,-90171.14639
65.90000,-2.19661,-90335.35123
66.00000,-2.19995,-90509.33719
66.10001,-2.20318,-90670.32337
66.20001,-2.20653,-90850.02542
66.30000,-2.20988,-91013.13949
66.40000,-2.21323,-91181.64182
66.50000,-2.21676,-91368.51430
66.60001,-2.21986,-91513.29994
66.70001,-2.22333,-91702.48508
66.80000,-2.22638,-91845.91174
66.90000,-2.22991,-92027.61650
67.00000,-2.23326,-92215.70492
67.10001,-2.23661,-92369.87233
67.20001,-2.24001,-92548.35844
67.30000,-2.24330,-92720.13903
67.40000,-2.24647,-92869.46654
67.50000,-2.24982,-93040.40670
67.60001,-2.25323,-93227.12421
67.70001,-2.25658,-93394.61327
67.80000,-2.26010,-93579.20289
67.90000,-2.26327,-93744.20047
68.00000,-2.26650,-93900.68650
68.10001,-2.26991,-94075.22678
68.20001,-2.27308,-94243.16287
68.30000,-2.27637,-94400.11978
68.40000,-2.27989,-94603.40142
68.50000,-2.28324,-94771.20638
68.60001,-2.28665,-94941.75911
68.70001,-2.28994,-95119.44652
68.80000,-2.29341,-95305.59182
68.90000,-2.29645,-95445.81771
69.00000,-2.29974,-95609.91526
69.10001,-2.30333,-95813.04193
69.20001,-2.30662,-95987.92195
69.30000,-2.30991,-96140.89727
69.40000,-2.31344,-96344.46502
69.50000,-2.31648,-96510.92291
69.60001,-2.31965,-96651.82233
69.70001,-2.32318,-96837.52060
69.80000,-2.32659,-97041.99433
69.90000,-2.32970,-97176.77236
70.00000,-2.33340,-97385.71048
70.10001,-2.33657,-97550.77362
70.20001,-2.33980,-97707.24773
70.30000,-2.34333,-97901.86286
70.40000,-2.34674,-98084.69415
70.50000,-2.34973,-98226.47572
70.60001,-2.35331,-98419.00468
70.70001,-2.35672,-98611.06873
70.80000,-2.35983,-98757.71999
70.90000,-2.36324,-98936.18226
71.00000,-2.36671,-99130.36227
71.10001,-2.36976,-99283.48064
71.20001,-2.37311,-99452.44789
71.30000,-2.37663,-99649.02997
71.40000,-2.37992,-99829.12540
71.50000,-2.38303,-99987.11348
71.51000,-2.38345,-100002.41995
