Time,Extension,Load
(sec),(mm),(N)
0.00000,0.00000,-0.08483
0.10000,-0.01447,-0.00848
0.20000,-0.04915,0.05688
0.30000,-0.08454,0.04416
0.40000,-0.11767,0.04657
0.50000,-0.14912,-0.00736
0.60000,-0.17973,-0.11582
0.70000,-0.20992,-0.21575
0.80000,-0.24011,-0.33241
0.90000,-0.27013,-0.43407
1.00000,-0.30008,-0.52350
1.10000,-0.33016,-0.62389
1.20000,-0.36011,-0.80358
1.30000,-0.39007,-0.88587
1.40000,-0.42008,-1.00534
1.50000,-0.45004,-1.11848
1.60000,-0.48005,-1.20226
1.70000,-0.51012,-1.38043
1.80000,-0.54008,-1.46685
1.90000,-0.57003,-1.58869
2.00000,-0.60011,-1.71523
2.10000,-0.63000,-1.79143
2.20000,-0.66008,-1.90176
2.30000,-0.69003,-2.08493
2.40000,-0.72004,-2.21406
2.50000,-0.75000,-2.32321
2.60000,-0.77989,-2.44742
2.70000,-0.80991,-2.59355
2.80000,-0.83992,-2.73665
2.90000,-0.87006,-2.89303
3.00000,-0.90001,-3.02029
3.10000,-0.93003,-3.12337
3.20000,-0.96004,-3.22670
3.30000,-0.98999,-3.38939
3.40000,-1.02001,-3.53292
3.50000,-1.05002,-3.65713
3.60000,-1.08010,-3.75880
3.70000,-1.10993,-3.84646
3.80000,-1.13995,-3.96873
3.90000,-1.17002,-4.15621
4.00000,-1.19992,-4.29188
4.10000,-1.22999,-4.36195
4.20000,-1.25982,-4.48284
4.30000,-1.28996,-4.66012
4.40000,-1.31997,-4.77965
4.50000,-1.35005,-4.89208
4.60000,-1.38006,-5.06441
4.70000,-1.41002,-5.17096
4.80000,-1.44003,-5.33977
4.90000,-1.46998,-5.44182
5.00000,-1.49988,-5.56302
5.10000,-1.52995,-5.76784
5.20000,-1.55991,-5.77298
5.30000,-1.59004,-5.97120
5.40000,-1.61994,-6.06396
5.50000,-1.65001,-6.21087
5.60000,-1.68008,-6.36724
5.70000,-1.70986,-6.43420
5.80000,-1.73981,-6.62118
5.90000,-1.76977,-6.70290
6.00000,-1.80002,-6.80213
6.10000,-1.83010,-6.97721
6.20000,-1.86005,-7.08687
6.30000,-1.89007,-7.21990
6.40000,-1.92002,-7.29938
6.50000,-1.95003,-7.47438
6.60000,-1.98005,-7.58859
6.70000,-2.01006,-7.74669
6.80000,-2.04008,-7.79888
6.90000,-2.07003,-7.95607
7.00000,-2.09999,-8.08820
7.10000,-2.13006,-8.17795
7.20000,-2.15996,-8.29941
7.30000,-2.19003,-8.44899
7.40000,-2.21992,-8.56984
7.50000,-2.25000,-8.74501
7.60000,-2.27995,-8.86832
7.70000,-2.31003,-8.96203
7.80000,-2.33992,-9.07362
7.90000,-2.37012,-9.21604
8.00000,-2.39995,-9.31145
8.10000,-2.42996,-9.50487
8.20000,-2.45992,-9.57406
8.30000,-2.48987,-9.68808
8.40000,-2.51989,-9.81862
8.50000,-2.54984,-10.00709
8.60000,-2.57998,-10.12528
8.70000,-2.60993,-10.23278
8.80000,-2.63995,-10.34559
8.90000,-2.66984,-10.46143
9.00000,-2.69997,-10.60721
9.10000,-2.72993,-10.78075
9.20000,-2.76000,-10.85400
9.30000,-2.78996,-10.95094
9.40000,-2.81997,-11.12081
9.50000,-2.84999,-11.22966
9.60000,-2.87982,-11.34731
9.70000,-2.91001,-11.47588
9.80000,-2.94003,-11.61402
9.90000,-2.97004,-11.72221
10.00000,-3.00000,-11.82543
10.10000,-3.03001,-11.98670
10.20000,-3.06003,-12.12527
10.30000,-3.08998,-12.23201
10.40000,-3.12000,-12.38458
10.50000,-3.15001,-12.41558
10.60000,-3.18002,-12.63134
10.70000,-3.21004,-12.69466
10.80000,-3.24011,-12.88773
10.90000,-3.26995,-12.97475
11.00000,-3.30002,-13.13770
11.10000,-3.33010,-13.27119
11.20000,-3.36017,-13.35903
11.30000,-3.39000,-13.44486
11.40000,-3.42014,-13.61988
11.50000,-3.45003,-13.76759
11.60000,-3.47999,-13.85739
11.70000,-3.51000,-13.98992
11.80000,-3.54014,-14.13571
11.90000,-3.57003,-14.23097
12.00000,-3.60005,-14.32080
12.10000,-3.62994,-14.50248
12.20000,-3.66001,-14.54588
12.30000,-3.68997,-14.77283
12.40000,-3.71998,-14.82462
12.50000,-3.75000,-14.99624
12.60000,-3.77995,-15.07082
12.70000,-3.80997,-15.25971
12.80000,-3.83998,-15.35219
12.90000,-3.86999,-15.43380
13.00000,-3.90013,-15.61380
13.10000,-3.93002,-15.75787
13.20000,-3.96004,-15.78143
13.30000,-3.98999,-16.01487
13.40000,-4.02007,-16.02625
13.50000,-4.05002,-16.22792
13.60000,-4.08004,-16.31111
13.70000,-4.10999,-16.47657
13.80000,-4.14006,-16.62747
13.90000,-4.16996,-16.69077
14.00000,-4.19991,-16.85488
14.10000,-4.22999,-16.98198
14.20000,-4.26000,-17.07255
14.30000,-4.29008,-17.19107
14.40000,-4.32003,-17.36317
14.50000,-4.34999,-17.45357
14.60000,-4.37994,-17.57595
14.70000,-4.40995,-17.70392
14.80000,-4.43997,-17.81154
14.90000,-4.46998,-17.98007
15.00000,-4.50006,-18.06230
15.10000,-4.53001,-18.26204
15.20000,-4.55997,-18.33865
15.30000,-4.58998,-18.41633
15.40000,-4.61999,-18.53599
15.50000,-4.65001,-18.72440
15.60000,-4.68008,-18.88916
15.70000,-4.70998,-18.88861
15.80000,-4.73993,-19.08880
15.90000,-4.76995,-19.15843
16.00000,-4.79996,-19.30959
16.10000,-4.83004,-19.48008
16.20000,-4.85993,-19.57525
16.30000,-4.88994,-19.71787
16.40000,-4.91990,-19.79001
16.50000,-4.95003,-19.96339
16.60000,-4.97993,-20.12269
16.70000,-5.00994,-20.20176
16.80000,-5.03990,-20.32203
16.90000,-5.06985,-20.40114
17.00000,-5.09992,-20.61858
17.10000,-5.13000,-20.80363
17.20000,-5.15995,-20.77706
17.30000,-5.19003,-20.95023
17.40000,-5.22004,-21.11592
17.50000,-5.25000,-21.24710
17.60000,-5.28001,-21.42739
17.70000,-5.30997,-21.46281
17.80000,-5.33998,-21.64505
17.90000,-5.36999,-21.68615
18.00000,-5.40001,-21.86366
18.10000,-5.43014,-22.00266
18.20000,-5.46004,-22.08792
18.30000,-5.49005,-22.23944
18.40000,-5.51989,-22.33332
18.50000,-5.54996,-22.41728
18.60000,-5.57992,-22.63312
18.70000,-5.60993,-22.74102
18.80000,-5.63994,-22.82050
18.90000,-5.66990,-22.93533
19.00000,-5.69997,-23.05551
19.10000,-5.72993,-23.22431
19.20000,-5.75994,-23.28552
19.30000,-5.79001,-23.41785
19.40000,-5.81991,-23.56417
19.50000,-5.84992,-23.71086
19.60000,-5.87994,-23.84176
19.70000,-5.90989,-23.91527
19.80000,-5.93991,-23.99181
19.90000,-5.97004,-24.02936
20.00000,-6.00012,-24.07223
20.10000,-6.03001,-24.21083
20.20000,-6.06008,-24.31249
20.30000,-6.08998,-24.40443
20.40000,-6.11993,-24.57514
20.50000,-6.14995,-24.63138
20.60000,-6.17990,-24.82868
20.70000,-6.20992,-24.92482
20.80000,-6.23999,-25.01935
20.90000,-6.26989,-25.15453
21.00000,-6.29996,-25.29160
21.10000,-6.32985,-25.38547
21.20000,-6.36005,-25.51825
21.30000,-6.38994,-25.67853
21.40000,-6.42002,-25.85499
21.50000,-6.44997,-25.93456
21.60000,-6.47981,-26.09340
21.70000,-6.51000,-26.20557
21.80000,-6.53995,-26.36279
21.90000,-6.56997,-26.39134
22.00000,-6.59998,-26.59776
22.10000,-6.63000,-26.71757
22.20000,-6.66007,-26.83975
22.30000,-6.69003,-26.91182
22.40000,-6.72010,-27.09568
22.50000,-6.75006,-27.16415
22.60000,-6.77995,-27.30151
22.70000,-6.80996,-27.41109
22.80000,-6.83998,-27.57595
22.90000,-6.86999,-27.65384
23.00000,-6.90007,-27.81620
23.10000,-6.92996,-27.95471
23.20000,-6.96010,-28.05134
23.30000,-6.98993,-28.16961
23.40000,-7.02012,-28.33942
23.50000,-7.04996,-28.44124
23.60000,-7.08009,-28.54682
23.70000,-7.10993,-28.69938
23.80000,-7.14006,-28.75527
23.90000,-7.17002,-28.90378
24.00000,-7.20003,-29.04677
24.10000,-7.22993,-29.21636
24.20000,-7.25994,-29.27181
24.30000,-7.29007,-29.42334
24.40000,-7.32009,-29.52688
24.50000,-7.35004,-29.58263
24.60000,-7.38000,-29.81025
24.70000,-7.40989,-29.90809
24.80000,-7.43991,-30.03041
24.90000,-7.46998,-30.11578
25.00000,-7.49993,-30.29891
25.10000,-7.52995,-30.45829
25.20000,-7.56002,-30.49577
25.30000,-7.58992,-30.68202
25.40000,-7.61999,-30.78579
25.50000,-7.65001,-30.90169
25.60000,-7.68008,-31.02279
25.70000,-7.71004,-31.13311
25.80000,-7.74005,-31.22005
25.90000,-7.76994,-31.39416
26.00000,-7.80008,-31.46181
26.10000,-7.83003,-31.62183
26.20000,-7.85993,-31.73159
26.30000,-7.88994,-31.82744
26.40000,-7.91996,-31.96625
26.50000,-7.94997,-32.06216
26.60000,-7.97993,-32.23478
26.70000,-8.01006,-32.30573
26.80000,-8.04001,-32.34966
26.90000,-8.07009,-32.56039
27.00000,-8.09998,-32.68942
27.10000,-8.13006,-32.79536
27.20000,-8.15995,-32.88312
27.30000,-8.19003,-33.04036
27.40000,-8.22004,-33.06604
27.50000,-8.25005,-33.29495
27.60000,-8.28013,-33.30427
27.70000,-8.31002,-33.52665
27.80000,-8.33986,-33.55972
27.90000,-8.36993,-33.70902
28.00000,-8.39995,-33.75895
28.10000,-8.42996,-34.00486
28.20000,-8.45992,-34.07087
28.30000,-8.48999,-34.21647
28.40000,-8.52000,-34.26266
28.50000,-8.55002,-34.39141
28.60000,-8.57997,-34.43527
28.70000,-8.61005,-34.61853
28.80000,-8.64006,-34.68385
28.90000,-8.66996,-34.84058
29.00000,-8.69991,-34.95957
29.10000,-8.72993,-35.09003
29.20000,-8.75994,-35.18410
29.30000,-8.78995,-35.26523
29.40000,-8.81991,-35.40997
29.50000,-8.84992,-35.50697
29.60000,-8.88000,-35.65052
29.70000,-8.90989,-35.75502
29.80000,-8.93997,-35.83020
29.90000,-8.97004,-35.97253
30.00000,-8.99999,-36.13044
30.10000,-9.03001,-36.11510
30.20000,-9.06008,-36.26517
30.30000,-9.09004,-36.39875
30.40000,-9.11999,-36.49200
30.50000,-9.14995,-36.60995
30.60000,-9.17996,-36.64448
30.70000,-9.21004,-36.84355
30.80000,-9.24005,-36.93677
30.90000,-9.26994,-37.03053
31.00000,-9.29990,-37.15576
31.10000,-9.32997,-37.20687
31.20000,-9.35993,-37.34531
31.30000,-9.38994,-37.46430
31.40000,-9.41996,-37.59867
31.50000,-9.45003,-37.70316
31.60000,-9.47992,-37.74949
31.70000,-9.51000,-37.88003
31.80000,-9.54007,-38.01515
31.90000,-9.57003,-38.13554
32.00000,-9.60010,-38.21093
32.10000,-9.62994,-38.40837
32.20000,-9.66013,-38.43333
32.30000,-9.69002,-38.56276
32.40000,-9.72004,-38.64079
32.50000,-9.74999,-38.74887
32.60000,-9.77995,-38.79410
32.70000,-9.80996,-38.95055
32.80000,-9.83992,-39.05246
32.90000,-9.86993,-39.15570
33.00000,-9.90001,-39.28633
33.10000,-9.92996,-39.46460
33.20000,-9.96003,-39.58663
33.30000,-9.99005,-39.64394
33.40000,-10.02006,-39.70454
33.50000,-10.05002,-39.84327
33.60000,-10.07991,-39.98390
33.70000,-10.10999,-40.04543
33.80000,-10.13994,-40.09695
33.90000,-10.17013,-40.23804
34.00000,-10.19997,-40.36458
34.10000,-10.22992,-40.51980
34.20000,-10.26000,-40.56293
34.30000,-10.28995,-40.68039
34.40000,-10.32003,-40.79517
34.50000,-10.35004,-40.89674
34.60000,-10.38006,-40.95473
34.70000,-10.41007,-41.10774
34.80000,-10.43997,-41.21365
34.90000,-10.46998,-41.34781
35.00000,-10.49999,-41.51352
35.10000,-10.52995,-41.49021
35.20000,-10.56002,-41.73752
35.30000,-10.58992,-41.70279
35.40000,-10.62005,-41.94526
35.50000,-10.65001,-41.94750
35.60000,-10.67996,-42.12067
35.70000,-10.70985,-42.18820
35.80000,-10.74011,-42.29888
35.90000,-10.76994,-42.40366
36.00000,-10.80002,-42.50494
36.10000,-10.82949,-42.58823
36.20000,-10.85975,-42.70621
36.30000,-10.88988,-42.79990
36.40000,-10.91989,-42.87757
36.50000,-10.94991,-42.97720
36.60000,-10.97986,-43.02178
36.70000,-11.00988,-43.19381
36.80000,-11.03989,-43.30596
36.90000,-11.06997,-43.36174
37.00000,-11.10028,-43.51095
37.10000,-11.13053,-43.51681
37.20000,-11.16013,-43.67383
37.30000,-11.19002,-43.77416
37.40000,-11.22004,-43.89953
37.50000,-11.24987,-44.01259
37.60000,-11.28001,-44.00651
37.70000,-11.30990,-44.22213
37.80000,-11.33992,-44.22114
37.90000,-11.37005,-44.43232
38.00000,-11.39994,-44.43456
38.10000,-11.43008,-44.59533
38.20000,-11.46003,-44.74050
38.30000,-11.48987,-44.77116
38.40000,-11.52012,-44.89833
38.50000,-11.54996,-44.94263
38.60000,-11.58003,-45.11809
38.70000,-11.61016,-45.12461
38.80000,-11.64000,-45.21792
38.90000,-11.67007,-45.34153
39.00000,-11.70003,-45.50917
39.10000,-11.73004,-45.49364
39.20000,-11.75994,-45.62296
39.30000,-11.79007,-45.75105
39.40000,-11.81991,-45.81429
39.50000,-11.84998,-45.97423
39.60000,-11.87993,-45.96763
39.70000,-11.91001,-46.10144
39.80000,-11.93996,-46.17050
39.90000,-11.96998,-46.29127
40.00000,-11.99993,-46.38914
40.10000,-12.03001,-46.56453
40.20000,-12.05996,-46.55895
40.30000,-12.09004,-46.72476
40.40000,-12.12005,-46.78084
40.50000,-12.14994,-46.88451
40.60000,-12.18002,-46.90742
40.70000,-12.20991,-47.06854
40.80000,-12.23999,-47.12123
40.90000,-12.27000,-47.20662
41.00000,-12.29990,-47.33501
41.10000,-12.32997,-47.43569
41.20000,-12.35992,-47.47998
41.30000,-12.39012,-47.56987
41.40000,-12.42001,-47.69914
41.50000,-12.45003,-47.72394
41.60000,-12.47998,-47.88818
41.70000,-12.51000,-47.90206
41.80000,-12.54001,-48.01746
41.90000,-12.56997,-48.11733
42.00000,-12.59998,-48.27817
42.10000,-12.62999,-48.24479
42.20000,-12.66007,-48.39389
42.30000,-12.68996,-48.44107
42.40000,-12.72004,-48.58684
42.50000,-12.74999,-48.64614
42.60000,-12.78001,-48.70039
42.70000,-12.81002,-48.78453
42.80000,-12.84009,-48.88623
42.90000,-12.86999,-49.01805
43.00000,-12.90000,-49.10189
43.10000,-12.92996,-49.16430
43.20000,-12.95991,-49.24989
43.30000,-12.99005,-49.34850
43.40000,-13.02006,-49.39110
43.50000,-13.05001,-49.53051
43.60000,-13.07991,-49.60446
43.70000,-13.10992,-49.66504
43.80000,-13.13994,-49.75970
43.90000,-13.16995,-49.86552
44.00000,-13.20003,-49.90688
44.10000,-13.22998,-50.05333
44.20000,-13.26000,-50.11864
44.30000,-13.29001,-50.23230
44.40000,-13.32014,-50.23658
44.50000,-13.35004,-50.34551
44.60000,-13.38011,-50.46856
44.70000,-13.41001,-50.51400
44.80000,-13.44002,-50.59680
44.90000,-13.47004,-50.68169
45.00000,-13.50005,-50.75030
45.10000,-13.52995,-50.74060
45.20000,-13.56002,-50.88419
45.30000,-13.59003,-50.95189
45.40000,-13.61999,-51.06516
45.50000,-13.65000,-51.14401
45.60000,-13.68002,-51.18484
45.70000,-13.70997,-51.32740
45.80000,-13.73993,-51.37222
45.90000,-13.76994,-51.48755
46.00000,-13.79990,-51.49979
46.10000,-13.82985,-51.53993
46.20000,-13.85992,-51.71501
46.30000,-13.88994,-51.71588
46.40000,-13.92001,-51.83245
46.50000,-13.95009,-51.84724
46.60000,-13.98004,-51.87626
46.70000,-14.00999,-52.04445
46.80000,-14.03995,-52.12328
46.90000,-14.06990,-52.20484
47.00000,-14.09998,-52.26088
47.10000,-14.12999,-52.37112
47.20000,-14.16001,-52.39929
47.30000,-14.18996,-52.47231
47.40000,-14.21998,-52.63862
47.50000,-14.24993,-52.68200
47.60000,-14.27994,-52.66946
47.70000,-14.30990,-52.78820
47.80000,-14.33997,-52.90722
47.90000,-14.36993,-52.93381
48.00000,-14.39994,-53.01487
48.10000,-14.42996,-53.06813
48.20000,-14.45991,-53.14862
48.30000,-14.48999,-53.24414
48.40000,-14.52000,-53.30250
48.50000,-14.55001,-53.42772
48.60000,-14.58003,-53.47040
48.70000,-14.61010,-53.61940
48.80000,-14.64000,-53.64729
48.90000,-14.67001,-53.69547
49.00000,-14.70003,-53.80504
49.10000,-14.73004,-53.80278
49.20000,-14.75994,-53.94203
49.30000,-14.79001,-54.00349
49.40000,-14.82002,-54.09205
49.50000,-14.84992,-54.15631
49.60000,-14.88011,-54.23398
49.70000,-14.91001,-54.30392
49.80000,-14.93996,-54.38407
49.90000,-14.96998,-54.40915
50.00000,-14.99987,-54.52749
50.10000,-15.03000,-54.47584
50.20000,-15.05984,-54.67536
50.30000,-15.09003,-54.70032
50.40000,-15.11993,-54.79825
50.50000,-15.14994,-54.89098
50.60000,-15.18002,-54.82581
50.70000,-15.21003,-54.98798
50.80000,-15.24010,-55.10341
50.90000,-15.27018,-55.11876
51.00000,-15.30001,-55.25521
51.10000,-15.33009,-55.23368
51.20000,-15.36004,-55.35967
51.30000,-15.39000,-55.38743
51.40000,-15.41989,-55.55212
51.50000,-15.45009,-55.56732
51.60000,-15.47986,-55.59334
51.70000,-15.50994,-55.71096
51.80000,-15.53995,-55.73507
51.90000,-15.57002,-55.89177
52.00000,-15.59992,-55.89752
52.10000,-15.62993,-55.92076
52.20000,-15.66001,-56.06281
52.30000,-15.69008,-56.12286
52.40000,-15.71998,-56.16696
52.50000,-15.75005,-56.29682
52.60000,-15.78006,-56.28628
52.70000,-15.81002,-56.44431
52.80000,-15.84009,-56.49983
52.90000,-15.86999,-56.58423
53.00000,-15.90000,-56.60347
53.10000,-15.92996,-56.59893
53.20000,-15.95991,-56.72295
53.30000,-15.98998,-56.82699
53.40000,-16.02000,-56.90770
53.50000,-16.05001,-56.98033
53.60000,-16.07997,-56.93981
53.70000,-16.11004,-57.06041
53.80000,-16.13994,-57.10916
53.90000,-16.17001,-57.20417
54.00000,-16.19997,-57.24729
54.10000,-16.22998,-57.27306
54.20000,-16.25993,-57.36798
54.30000,-16.28995,-57.41248
54.40000,-16.31996,-57.51262
54.50000,-16.34992,-57.57532
54.60000,-16.37999,-57.56727
54.70000,-16.40989,-57.73683
54.80000,-16.44002,-57.81919
54.90000,-16.46992,-57.86674
55.00000,-16.50005,-57.95192
55.10000,-16.52994,-57.96942
55.20000,-16.56002,-58.09261
55.30000,-16.59003,-58.09968
55.40000,-16.61999,-58.21784
55.50000,-16.65006,-58.20651
55.60000,-16.68002,-58.24363
55.70000,-16.70997,-58.34323
55.80000,-16.74004,-58.37969
55.90000,-16.77006,-58.48770
56.00000,-16.80013,-58.58343
56.10000,-16.83003,-58.54125
56.20000,-16.85992,-58.67578
56.30000,-16.88994,-58.68084
56.40000,-16.91989,-58.76079
56.50000,-16.94996,-58.88334
56.60000,-16.98004,-58.89036
56.70000,-17.00999,-58.96863
56.80000,-17.04001,-59.04832
56.90000,-17.06996,-59.11195
57.00000,-17.10010,-59.11160
57.10000,-17.12993,-59.10108
57.20000,-17.16007,-59.29381
57.30000,-17.18996,-59.23113
57.40000,-17.21991,-59.33684
57.50000,-17.24999,-59.34072
57.60000,-17.27994,-59.47175
57.70000,-17.30996,-59.53254
57.80000,-17.34003,-59.63737
57.90000,-17.36993,-59.62662
58.00000,-17.40000,-59.73883
58.10000,-17.42995,-59.75958
58.20000,-17.45997,-59.78863
58.30000,-17.48998,-59.87518
58.40000,-17.52000,-59.89473
58.50000,-17.54995,-60.01582
58.60000,-17.57997,-59.94535
58.70000,-17.61004,-60.06536
58.80000,-17.63994,-60.05499
58.90000,-17.66995,-60.17277
59.00000,-17.70008,-60.13810
59.10000,-17.73004,-60.30642
59.20000,-17.76005,-60.35018
59.30000,-17.79001,-60.29028
59.40000,-17.82002,-51.15462
59.50000,-17.84998,-50.90615
59.60000,-17.88005,-51.15209
59.70000,-17.90995,-51.72455
59.80000,-17.93996,-52.18088
59.90000,-17.97003,-52.56586
60.00000,-17.99993,-52.72003
60.10000,-18.03000,-52.56924
60.20000,-18.06002,-52.51589
60.30000,-18.09003,-52.45333
60.40000,-18.11998,-52.42047
60.50000,-18.15000,-52.38730
60.60000,-18.18001,-52.24233
60.70000,-18.20997,-52.21766
60.80000,-18.23992,-52.00727
60.90000,-18.27006,-51.83245
61.00000,-18.30007,-50.95067
61.10000,-18.33003,-50.46504
61.20000,-18.36004,-50.38008
61.30000,-18.39000,-50.35496
61.40000,-18.42007,-50.30312
61.50000,-18.44996,-50.22595
61.60000,-18.48004,-50.23703
61.70000,-18.50993,-50.19151
61.80000,-18.54013,-50.23611
61.90000,-18.56996,-50.18926
62.00000,-18.59992,-50.22505
62.10000,-18.63005,-50.14893
62.20000,-18.66000,-50.19547
62.30000,-18.69008,-50.11913
62.40000,-18.72003,-50.13520
62.50000,-18.74999,-50.14462
62.60000,-18.77994,-50.09994
62.70000,-18.80990,-50.12185
62.80000,-18.83997,-50.14235
62.90000,-18.86998,-50.12488
63.00000,-18.89994,-50.08292
63.10000,-18.93007,-50.04500
63.20000,-18.96003,-50.15184
63.30000,-18.99004,-50.09830
63.40000,-19.02006,-50.18759
63.50000,-19.05001,-50.15459
63.60000,-19.07991,-50.15983
63.70000,-19.10998,-50.17675
63.80000,-19.13993,-50.16447
63.90000,-19.17001,-50.15919
64.00000,-19.19990,-50.13537
64.10001,-19.22992,-50.10010
64.20000,-19.25999,-50.13096
64.30000,-19.29001,-50.13014
64.40000,-19.31996,-50.03135
64.50000,-19.35003,-50.00443
64.60001,-19.38005,-49.85078
64.70000,-19.41000,-49.81249
64.80000,-19.44008,-49.80199
64.90000,-19.47003,-49.76229
65.00000,-19.49999,-49.73782
65.10001,-19.52994,-49.64603
65.20000,-19.55996,-49.64395
65.30000,-19.59003,-49.59277
65.40000,-19.62004,-49.48436
65.50000,-19.65006,-49.42477
65.60001,-19.68001,-49.33235
65.70001,-19.70991,-49.28562
65.80000,-19.73992,-49.20819
65.90000,-19.76988,-49.12268
65.92001,-19.77598,-34.16736
