Time,Extension,Load
(sec),(mm),(N)
0.00000,-0.00006,-0.24490
0.10000,-0.01889,0.53807
0.20000,-0.05698,0.73978
0.30000,-0.09518,0.26311
0.40000,-0.13130,0.72294
0.50000,-0.16592,0.39589
0.60000,-0.19982,-0.03222
0.70000,-0.23336,0.26977
0.80000,-0.26672,0.03554
0.90000,-0.30014,0.25919
1.00000,-0.33339,0.04338
1.10000,-0.36681,0.13816
1.20000,-0.40005,-0.03927
1.30000,-0.43341,0.24157
1.40000,-0.46672,0.21023
1.50000,-0.50002,0.00539
1.60000,-0.53338,-0.25234
1.70000,-0.56663,-0.42350
1.80000,-0.59993,-0.00049
1.90000,-0.63335,-1.09131
2.00000,-0.66659,-0.98987
2.10000,-0.70008,-0.90331
2.20000,-0.73332,-0.12308
2.30000,-0.76662,-0.64441
2.40000,-0.80004,-1.28676
2.50000,-0.83341,-1.26835
2.60000,-0.86671,-0.82066
2.70000,-0.90007,-1.52294
2.80000,-0.93337,-1.91423
2.90000,-0.96662,-0.82380
3.00000,-0.99998,-1.46693
3.10000,-1.03334,-1.39760
3.20000,-1.06670,-1.16534
3.30000,-1.10001,-1.32906
3.40000,-1.13337,-1.99883
3.50000,-1.16667,-1.78811
3.60000,-1.19992,-1.51354
3.70000,-1.23346,-1.84333
3.80000,-1.26664,-1.46106
3.90000,-1.29994,-2.35369
4.00000,-1.33331,-1.93264
4.10000,-1.36667,-1.65533
4.20000,-1.40009,-1.97611
4.30000,-1.43333,-1.44461
4.40000,-1.46676,-2.40108
4.50000,-1.50012,-1.99178
4.60000,-1.53342,-2.03956
4.70000,-1.56672,-2.40069
4.80000,-1.60003,-3.03913
4.90000,-1.63333,-2.35486
5.00000,-1.66675,-2.81861
5.10000,-1.70005,-3.23340
5.20000,-1.73336,-2.78414
5.30000,-1.76672,-2.81822
5.40000,-1.80002,-3.07751
5.50000,-1.83333,-3.06106
5.60000,-1.86657,-3.09944
5.70000,-1.90005,-3.37988
5.80000,-1.93329,-2.56872
5.90000,-1.96666,-2.93337
6.00000,-1.99996,-3.57416
6.10000,-2.03332,-3.72926
6.20000,-2.06668,-3.42414
6.30000,-2.10005,-3.74219
6.40000,-2.13329,-3.27570
6.50000,-2.16665,-3.37832
6.60000,-2.19995,-3.24045
6.70000,-2.23332,-3.53616
6.80000,-2.26668,-3.81543
6.90000,-2.29998,-4.16089
7.00000,-2.33329,-4.28740
7.10000,-2.36665,-4.37710
7.20000,-2.39995,-4.68691
7.30000,-2.43325,-4.17499
7.40000,-2.46662,-3.48995
7.50000,-2.49992,-5.13656
7.60000,-2.53328,-4.18792
7.70000,-2.56658,-4.62777
7.80000,-2.60001,-4.02929
7.90000,-2.63331,-3.97367
8.00000,-2.66667,-4.66968
8.10000,-2.69997,-4.72412
8.20000,-2.73340,-4.81225
8.30000,-2.76664,-4.43311
8.40000,-2.79994,-5.45578
8.50000,-2.83336,-5.27952
8.60000,-2.86673,-5.20863
8.70000,-2.90009,-5.23918
8.80000,-2.93339,-5.80985
8.90000,-2.96670,-4.44642
9.00000,-3.00012,-5.40447
9.10000,-3.03330,-5.30694
9.20000,-3.06660,-5.53920
9.30000,-3.09997,-5.68177
9.40000,-3.13333,-5.81612
9.50000,-3.16675,-5.79810
9.60000,-3.20005,-5.37940
9.70000,-3.23330,-5.93989
9.80000,-3.26666,-6.30180
9.90000,-3.29996,-6.46787
10.00000,-3.33332,-6.18743
10.10000,-3.36669,-5.01710
10.20000,-3.39987,-6.46709
10.30000,-3.43329,-5.72290
10.40000,-3.46666,-6.31198
10.50000,-3.50014,-6.00922
10.60000,-3.53344,-6.74205
10.70000,-3.56668,-7.48741
10.80000,-3.59999,-6.90929
10.90000,-3.63317,-5.80594
11.00000,-3.66659,-6.20349
11.10000,-3.69995,-6.25284
11.20000,-3.73326,-6.94141
11.30000,-3.76668,-6.36094
11.40000,-3.80010,-6.71189
11.50000,-3.83334,-7.05460
11.60000,-3.86671,-7.16232
11.70000,-3.90007,-6.65979
11.80000,-3.93337,-7.17093
11.90000,-3.96661,-7.42709
12.00000,-3.99992,-7.14391
12.10000,-4.03328,-7.18503
12.20000,-4.06664,-7.62175
12.30000,-4.10006,-7.23869
12.40000,-4.13343,-6.87365
12.50000,-4.16673,-7.10944
12.60000,-4.19997,-7.78038
12.70000,-4.23328,-7.14038
12.80000,-4.26664,-8.33617
12.90000,-4.29988,-7.93079
13.00000,-4.33324,-7.39223
13.10000,-4.36661,-7.96251
13.20000,-4.39997,-7.71223
13.30000,-4.43333,-7.91512
13.40000,-4.46675,-8.39649
13.50000,-4.50000,-8.32325
13.60000,-4.53342,-8.20026
13.70000,-4.56660,-8.74861
13.80000,-4.59997,-8.71571
13.90000,-4.63333,-8.73529
14.00000,-4.66663,-8.05142
14.10000,-4.69999,-8.29701
14.20000,-4.73336,-8.64482
14.30000,-4.76672,-8.79914
14.40000,-4.79996,-8.79992
14.50000,-4.83332,-8.48266
14.60000,-4.86675,-9.27659
14.70000,-4.89993,-9.01965
14.80000,-4.93323,-9.48771
14.90000,-4.96659,-8.67263
15.00000,-4.99984,-8.95307
15.10000,-5.03338,-8.28956
15.20000,-5.06674,-9.00477
15.30000,-5.10010,-8.98714
15.40000,-5.13335,-9.73016
15.50000,-5.16671,-9.11561
15.60000,-5.19995,-8.71454
15.70000,-5.23326,-9.13363
15.80000,-5.26656,-9.99493
15.90000,-5.29986,-10.06700
16.00000,-5.33322,-9.66357
16.10000,-5.36665,-9.79556
16.20000,-5.39983,-10.19312
16.30000,-5.43325,-10.61809
16.40000,-5.46673,-9.42230
16.50000,-5.50004,-10.72580
16.60000,-5.53340,-9.88252
16.70000,-5.56670,-10.50529
16.80000,-5.59994,-10.46338
16.90000,-5.63349,-10.95493
17.00000,-5.66685,-10.86485
17.10000,-5.70009,-10.27576
17.20000,-5.73345,-10.18489
17.30000,-5.76670,-10.27929
17.40000,-5.80006,-10.68193
17.50000,-5.83342,-11.24751
17.60000,-5.86655,-10.49941
17.70000,-5.89973,-11.72223
17.80000,-5.93327,-10.57461
17.90000,-5.96681,-11.32193
18.00000,-6.00000,-10.86367
18.10000,-6.03342,-11.23733
18.20000,-6.06666,-10.53074
18.30000,-6.10002,-10.86406
18.40000,-6.13345,-11.18602
18.50000,-6.16675,-11.69168
18.60000,-6.19999,-11.24477
18.70000,-6.23329,-11.94078
18.80000,-6.26660,-11.03092
18.90000,-6.29996,-11.99092
19.00000,-6.33326,-12.03126
19.10000,-6.36668,-11.51621
19.20000,-6.40005,-11.80135
19.30000,-6.43335,-11.79038
19.40000,-6.46665,-11.57378
19.50000,-6.50002,-11.70304
19.60000,-6.53332,-12.12370
19.70000,-6.56668,-11.79351
19.80000,-6.60010,-13.07352
19.90000,-6.63335,-11.59689
20.00000,-6.66659,-11.61217
20.10000,-6.69989,-12.63249
20.20000,-6.73331,-12.54789
20.30000,-6.76662,-12.53888
20.40000,-6.79998,-12.54123
20.50000,-6.83328,-12.50402
20.60000,-6.86658,-12.89883
20.70000,-6.89995,-12.75782
20.80000,-6.93325,-12.41550
20.90000,-6.96661,-13.05080
21.00000,-6.99998,-13.13423
21.10000,-7.03328,-12.60977
21.20000,-7.06664,-12.90666
21.30000,-7.10006,-12.80326
21.40000,-7.13331,-12.74020
21.50000,-7.16661,-12.84399
21.60000,-7.19991,-13.06255
21.70000,-7.23333,-13.42328
21.80000,-7.26664,-13.33477
21.90000,-7.30000,-12.78328
22.00000,-7.33336,-12.55650
22.10000,-7.36666,-13.63205
22.20000,-7.39997,-13.44835
22.30000,-7.43339,-13.76444
22.40000,-7.46675,-12.96972
22.50000,-7.49999,-13.41428
22.60000,-7.53330,-12.83655
22.70000,-7.56660,-13.23489
22.80000,-7.59990,-13.78089
22.90000,-7.63327,-13.79146
23.00000,-7.66663,-13.80830
23.10000,-7.69999,-13.91014
23.20000,-7.73341,-13.80478
23.30000,-7.76666,-14.26265
23.40000,-7.79996,-13.97320
23.50000,-7.83320,-13.53883
23.60000,-7.86674,-13.91954
23.70000,-7.89999,-14.49217
23.80000,-7.93335,-14.12282
23.90000,-7.96665,-13.99122
24.00000,-7.99995,-13.95048
24.10000,-8.03338,-14.25168
24.20000,-8.06668,-14.65237
24.30000,-8.10004,-14.07699
24.40000,-8.13329,-14.47925
24.50000,-8.16665,-13.76013
24.60000,-8.20001,-13.79029
24.70000,-8.23337,-14.61203
24.80000,-8.26674,-14.48982
24.90000,-8.29998,-14.38054
25.00000,-8.33346,-15.12630
25.10000,-8.36676,-15.06246
25.20000,-8.40001,-14.80747
25.30000,-8.43343,-14.36879
25.40000,-8.46667,-14.94965
25.50000,-8.49991,-14.56933
25.60000,-8.53328,-15.17173
25.70000,-8.56664,-15.16155
25.80000,-8.59994,-15.20228
25.90000,-8.63336,-15.15959
26.00000,-8.66673,-15.04405
26.10000,-8.70003,-14.56933
26.20000,-8.73333,-14.87876
26.30000,-8.76664,-15.01976
26.40000,-8.80006,-15.48978
26.50000,-8.83342,-15.60885
26.60000,-8.86672,-15.41771
26.70000,-8.89997,-15.30804
26.80000,-8.93327,-14.95239
26.90000,-8.96675,-15.43181
27.00000,-9.00005,-15.53404
27.10000,-9.03330,-15.84894
27.20000,-9.06672,-15.79450
27.30000,-9.09996,-16.39651
27.40000,-9.13338,-14.83176
27.50000,-9.16663,-15.66211
27.60000,-9.20005,-15.89908
27.70000,-9.23335,-15.85756
27.80000,-9.26665,-15.95431
27.90000,-9.29996,-15.86383
28.00000,-9.33332,-15.96801
28.10000,-9.36668,-16.13761
28.20000,-9.39999,-16.02089
28.30000,-9.43329,-15.83759
28.40000,-9.46665,-14.97981
28.50000,-9.49995,-15.10476
28.60000,-9.53332,-14.45026
28.70000,-9.56662,-14.24855
28.80000,-9.60010,-15.57046
28.90000,-9.63340,-15.21991
29.00000,-9.66665,-14.84938
29.10000,-9.70007,-14.80512
29.20000,-9.73331,-15.06833
29.30000,-9.76674,-15.70442
29.40000,-9.80004,-15.90848
29.50000,-9.83340,-10.01334
29.60000,-9.86676,-9.89505
29.70000,-9.90012,-10.39444
29.80000,-9.93331,-10.44301
29.90000,-9.96661,-9.90249
30.00000,-9.99991,-10.90597
30.10000,-10.03322,-10.24560
30.20000,-10.06658,-9.94910
30.30000,-10.10000,-10.50372
30.40000,-10.13330,-10.08227
30.50000,-10.16661,-10.24443
30.60000,-10.20003,-10.59498
30.70000,-10.23333,-10.39366
30.80000,-10.26663,-10.58519
30.90000,-10.29994,-10.24404
31.00000,-10.33330,-10.73285
31.10000,-10.36660,-10.90049
31.20000,-10.40003,-10.29848
31.30000,-10.43333,-10.55816
31.40000,-10.46663,-10.19586
31.50000,-10.49993,-10.85074
31.60000,-10.53342,-10.16923
31.70000,-10.56672,-10.51782
31.80000,-10.60002,-10.41833
31.90000,-10.63332,-10.30631
32.00000,-10.66663,-10.55385
32.10000,-10.70011,-10.77045
32.20000,-10.73341,-9.27581
32.30000,-10.76671,-10.09011
32.40000,-10.80008,-10.22132
32.50000,-10.83338,-8.61466
32.60000,-10.86656,-10.21388
32.70000,-10.89999,-9.34866
32.80000,-10.93329,-10.16413
32.90000,-10.96677,-9.35375
33.00000,-11.00001,-10.54719
33.10000,-11.03344,-10.79356
33.20000,-11.06668,-9.71331
33.30000,-11.10004,-10.06073
33.40000,-11.13334,-9.36276
33.50000,-11.16665,-10.10264
33.60000,-11.20001,-10.20996
33.70000,-11.23331,-9.82690
33.80000,-11.26667,-9.53197
33.90000,-11.29992,-10.36585
34.00000,-11.33334,-10.59576
34.10000,-11.36664,-10.36154
34.20000,-11.40001,-10.70896
34.30000,-11.43331,-9.99180
34.40000,-11.46679,-10.41598
34.50000,-11.50003,-10.34822
34.60000,-11.53333,-10.41167
34.70000,-11.56658,-11.02112
34.80000,-11.59994,-11.09476
34.90000,-11.63336,-9.72154
35.00000,-11.66667,-10.79356
35.10000,-11.70009,-11.16330
35.20000,-11.73333,-10.56678
35.30000,-11.76669,-10.73912
35.40000,-11.80000,-9.97025
35.50000,-11.83330,-10.41677
35.60000,-11.86660,-10.02117
35.70000,-11.89990,-10.69251
35.80000,-11.93327,-10.72306
35.90000,-11.96669,-10.97882
36.00000,-11.99999,-11.40967
36.10000,-12.03341,-11.05912
36.20000,-12.06678,-10.53388
36.30000,-12.10008,-11.41750
36.40000,-12.13338,-10.85623
36.50000,-12.16669,-11.27807
36.60000,-12.19993,-10.82764
36.70000,-12.23329,-10.66744
36.80000,-12.26671,-11.19503
36.90000,-12.30002,-11.04384
37.00000,-12.33332,-10.52409
37.10000,-12.36662,-11.08066
37.20000,-12.39998,-11.06499
37.30000,-12.43341,-11.28864
37.40000,-12.46671,-10.16413
37.50000,-12.49995,-11.95253
37.60000,-12.53325,-10.45280
37.70000,-12.56668,-11.56007
37.80000,-12.60004,-10.98431
37.90000,-12.63340,-11.08771
38.00000,-12.66671,-11.95919
38.10000,-12.70007,-11.11278
38.20000,-12.73343,-11.46255
38.30000,-12.76667,-11.08419
38.40000,-12.79998,-10.81784
38.50000,-12.83328,-11.53540
38.60000,-12.86658,-10.94083
38.70000,-12.90000,-10.52526
38.80000,-12.93337,-11.28237
38.90000,-12.96673,-11.09045
39.00000,-13.00003,-10.80649
39.10000,-13.03333,-11.05481
39.20000,-13.06676,-11.78176
39.30000,-13.09994,-10.77633
39.40000,-13.13330,-11.56125
39.50000,-13.16660,-11.40301
39.60000,-13.20003,-11.23106
39.70000,-13.23333,-10.77202
39.80000,-13.26663,-11.69050
39.90000,-13.30000,-11.76923
40.00000,-13.33336,-11.95058
40.10000,-13.36672,-11.35170
40.20000,-13.40014,-10.94945
40.30000,-13.43339,-11.62118
40.40000,-13.46669,-11.61687
40.50000,-13.49999,-11.42690
40.60000,-13.53335,-11.89026
40.70000,-13.56666,-12.37006
40.80000,-13.60002,-11.91376
40.90000,-13.63332,-12.07082
41.00000,-13.66662,-12.18637
41.10000,-13.70005,-12.37320
41.20000,-13.73335,-12.47582
41.30000,-13.76659,-11.62588
41.40000,-13.80007,-11.83072
41.50000,-13.83338,-11.71988
41.60000,-13.86668,-12.41824
41.70000,-13.89998,-11.42142
41.80000,-13.93329,-10.98744
41.90000,-13.96671,-11.56360
42.00000,-14.00007,-12.29094
42.10000,-14.03331,-11.83072
42.20000,-14.06674,-12.15699
42.30000,-14.09998,-11.88947
42.40000,-14.13328,-12.10216
42.50000,-14.16664,-11.58788
42.60000,-14.19995,-12.62152
42.70000,-14.23331,-11.94823
42.80000,-14.26667,-12.50558
42.90000,-14.30009,-12.51655
43.00000,-14.33346,-11.80761
43.10000,-14.36664,-12.58862
43.20000,-14.40000,-12.43821
43.30000,-14.43336,-12.43782
43.40000,-14.46661,-12.61251
43.50000,-14.50003,-12.35126
43.60000,-14.53339,-12.75900
43.70000,-14.56670,-12.22201
43.80000,-14.60000,-12.55298
43.90000,-14.63336,-12.93917
44.00000,-14.66672,-12.55494
44.10000,-14.70003,-12.86123
44.20000,-14.73339,-12.77271
44.30000,-14.76657,-13.23175
44.40000,-14.80005,-12.98108
44.50000,-14.83336,-12.32502
44.60000,-14.86660,-12.73158
44.70000,-14.89996,-12.43273
44.80000,-14.93344,-12.98617
44.90000,-14.96669,-13.04218
45.00000,-14.99993,-12.64463
45.10000,-15.03335,-12.34029
45.20000,-15.06671,-13.07783
45.30000,-15.10002,-12.51929
45.40000,-15.13338,-11.99444
45.50000,-15.16662,-13.32850
45.60000,-15.19993,-12.56159
45.70000,-15.23335,-12.81188
45.80000,-15.26671,-12.56003
45.90000,-15.30001,-12.44566
46.00000,-15.33332,-12.74882
46.10000,-15.36668,-12.84830
46.20000,-15.39992,-13.07195
46.30000,-15.43340,-12.98343
46.40000,-15.46659,-12.93878
46.50000,-15.49995,-13.77070
46.60000,-15.53325,-12.70142
46.70000,-15.56673,-12.67165
46.80000,-15.59992,-12.82284
46.90000,-15.63328,-12.58784
47.00000,-15.66676,-12.22201
47.10000,-15.70007,-12.79542
47.20000,-15.73325,-12.63758
47.30000,-15.76673,-12.61682
47.40000,-15.79997,-12.86084
47.50000,-15.83334,-12.78328
47.60000,-15.86676,-12.13114
47.70000,-15.90006,-12.86554
47.80000,-15.93336,-13.22940
47.90000,-15.96667,-12.96189
48.00000,-16.00003,-12.33168
48.10000,-16.03345,-12.71356
48.20000,-16.06675,-12.87219
48.30000,-16.09994,-12.95366
48.40000,-16.13324,-13.32811
48.50000,-16.16666,-12.92781
48.60000,-16.20003,-12.96071
48.70000,-16.23333,-12.26118
48.80000,-16.26663,-12.68106
48.90000,-16.30005,-12.95210
49.00000,-16.33336,-13.50710
49.10000,-16.36672,-13.22901
49.20000,-16.39996,-12.89922
49.30000,-16.43332,-13.52512
49.40000,-16.46663,-12.91802
49.50000,-16.49993,-13.54000
49.60000,-16.53335,-12.51303
49.70000,-16.56665,-13.64537
49.80000,-16.59996,-13.53570
49.90000,-16.63332,-13.37276
50.00000,-16.66668,-13.27640
50.10000,-16.69998,-13.12169
50.20000,-16.73329,-13.43112
50.30000,-16.76677,-13.69237
50.40000,-16.80007,-12.79503
50.50000,-16.83326,-13.49222
50.60000,-16.86662,-12.80130
50.70000,-16.89998,-14.07621
50.80000,-16.93334,-13.03357
50.90000,-16.96671,-14.00767
51.00000,-17.00001,-13.94500
51.10000,-17.03337,-13.49104
51.20000,-17.06661,-13.48674
51.30000,-17.09998,-13.94422
51.40000,-17.13334,-13.58701
51.50000,-17.16670,-13.70294
51.60000,-17.20000,-13.30226
51.70000,-17.23331,-14.12125
51.80000,-17.26661,-14.12047
51.90000,-17.30003,-13.88899
52.00000,-17.33340,-13.91719
52.10000,-17.36670,-13.46284
52.20000,-17.40006,-14.17061
52.30000,-17.43336,-13.64302
52.40000,-17.46667,-14.56581
52.50000,-17.49997,-14.78671
52.60000,-17.53327,-13.42446
52.70000,-17.56663,-13.89173
52.80000,-17.60005,-14.08992
52.90000,-17.63330,-14.11460
53.00000,-17.66654,-14.06720
53.10000,-17.69990,-14.16473
53.20000,-17.73327,-13.03122
53.30000,-17.76657,-14.45653
53.40000,-17.80005,-13.64576
53.50000,-17.83323,-14.00532
53.60000,-17.86660,-13.63479
53.70000,-17.90008,-14.83881
53.80000,-17.93338,-14.12830
53.90000,-17.96663,-14.42206
54.00000,-18.00005,-13.98495
54.10000,-18.03341,-14.42911
54.20000,-18.06671,-14.10324
54.30000,-18.10002,-13.93325
54.40000,-18.13344,-14.46397
54.50000,-18.16674,-14.49648
54.60000,-18.19998,-14.55249
54.70000,-18.23341,-14.20625
54.80000,-18.26671,-14.34921
54.90000,-18.29995,-14.64023
55.00000,-18.33332,-14.44870
55.10000,-18.36656,-13.60659
55.20000,-18.39998,-14.18627
55.30000,-18.43340,-14.74637
55.40000,-18.46659,-14.49061
55.50000,-18.49995,-14.37467
55.60000,-18.53331,-14.65041
55.70000,-18.56667,-14.58304
55.80000,-18.59998,-14.79729
55.90000,-18.63334,-14.21487
56.00000,-18.66676,-14.88973
56.10000,-18.70006,-14.70681
56.20000,-18.73337,-13.93011
56.30000,-18.76667,-14.56307
56.40000,-18.79997,-14.68409
56.50000,-18.83339,-15.15528
56.60000,-18.86670,-14.07425
56.70000,-18.90006,-14.59048
56.80000,-18.93324,-15.02368
56.90000,-18.96655,-14.86544
57.00000,-18.99991,-15.13022
57.10000,-19.03321,-14.93438
57.20000,-19.06669,-13.94265
57.30000,-19.10000,-14.63513
57.40000,-19.13324,-14.35744
57.50000,-19.16648,-14.16591
57.60000,-19.19978,-15.17918
57.70000,-19.23332,-14.81413
57.80000,-19.26681,-14.91832
57.90000,-19.30005,-15.16312
58.00000,-19.33341,-15.22618
58.10000,-19.36678,-14.44791
58.20000,-19.39990,-14.83489
58.30000,-19.43332,-14.84938
58.40000,-19.46668,-14.78867
58.50000,-19.49999,-15.33663
58.60000,-19.53341,-14.69741
58.70000,-19.56671,-15.05619
58.80000,-19.60001,-14.88385
58.90000,-19.63338,-15.51445
59.00000,-19.66680,-14.85095
59.10000,-19.70004,-14.69467
59.20000,-19.73329,-15.14823
59.30000,-19.76677,-15.20307
59.40000,-19.80001,-14.49217
59.50000,-19.83331,-15.66681
59.60000,-19.86668,-15.19993
59.70000,-19.89992,-15.06794
59.80000,-19.93328,-14.93751
59.90000,-19.96682,-15.12003
60.00000,-20.00007,-15.09771
60.10000,-20.03337,-15.07773
60.20000,-20.06667,-15.59044
60.30000,-20.09998,-15.01859
60.40000,-20.13328,-15.01154
60.50000,-20.16670,-15.44395
60.60000,-20.20000,-14.90578
60.70000,-20.23330,-15.56067
60.80000,-20.26667,-15.77962
60.90000,-20.30003,-15.67543
61.00000,-20.33327,-15.34603
61.10000,-20.36670,-14.96963
61.20000,-20.40006,-14.98960
61.30000,-20.43330,-15.30138
61.40000,-20.46667,-15.24184
61.50000,-20.49997,-15.62491
61.60000,-20.53339,-15.20150
61.70000,-20.56663,-15.18662
61.80000,-20.60017,-15.28375
61.90000,-20.63348,-15.59984
62.00000,-20.66666,-15.54265
62.10000,-20.70002,-15.01859
62.20000,-20.73332,-15.21952
62.30000,-20.76663,-15.76238
62.40000,-20.79999,-15.94804
62.50000,-20.83323,-15.99308
62.60000,-20.86666,-15.30138
62.70000,-20.90008,-15.94686
62.80000,-20.93338,-15.34681
62.90000,-20.96668,-16.01619
63.00000,-20.99987,-16.05693
63.10000,-21.03341,-15.61041
63.20000,-21.06665,-14.88855
63.30000,-21.09996,-15.89007
63.40000,-21.13326,-15.13413
63.50000,-21.16662,-15.98447
63.60000,-21.20004,-15.80077
63.70000,-21.23340,-15.80664
63.80000,-21.26671,-15.01271
63.90000,-21.30001,-15.89516
64.00000,-21.33325,-15.76708
64.10001,-21.36668,-15.52816
64.20000,-21.39998,-15.66603
64.30000,-21.43316,-15.97898
64.40000,-21.46664,-16.25825
64.50000,-21.49995,-15.65781
64.60001,-21.53331,-15.99739
64.70000,-21.56661,-16.10236
64.80000,-21.59985,-16.49756
64.90000,-21.63328,-16.29898
65.00000,-21.66670,-15.88772
65.10001,-21.69994,-16.01854
65.20000,-21.73336,-15.67974
65.30000,-21.76661,-15.89908
65.40000,-21.79997,-15.52150
65.50000,-21.83333,-16.27274
65.60001,-21.86663,-16.41257
65.70001,-21.90006,-16.28606
65.80000,-21.93330,-16.86417
65.90000,-21.96666,-16.04635
66.00000,-21.99997,-15.67504
66.10001,-22.03333,-14.78358
66.20001,-22.06669,-16.10471
66.30000,-22.09994,-14.61516
66.40000,-22.13336,-14.33589
66.50000,-22.16666,-15.38559
66.60001,-22.19996,-15.16742
66.70001,-22.23338,-14.70877
66.80000,-22.26663,-15.00645
66.90000,-22.29999,-15.82740
67.00000,-22.33335,-15.14823
67.10001,-22.36665,-14.99274
67.20001,-22.40002,-15.30725
67.30000,-22.43338,-15.32096
67.40000,-22.46674,-15.45139
67.50000,-22.50005,-16.04322
67.60001,-22.53329,-15.20973
67.70001,-22.56659,-15.28728
67.80000,-22.60001,-14.82902
67.90000,-22.63332,-14.99665
68.00000,-22.66668,-15.04405
68.10001,-22.69992,-14.96924
68.20001,-22.73328,-14.61320
68.30000,-22.76659,-15.56028
68.40000,-22.79995,-15.16664
68.50000,-22.83331,-16.02481
68.60001,-22.86667,-15.31587
68.70001,-22.89998,-16.03382
68.80000,-22.93334,-15.35817
68.90000,-22.96670,-15.98760
69.00000,-23.00007,-15.95156
69.10001,-23.03343,-15.68405
69.20001,-23.06673,-16.15093
69.30000,-23.10003,-15.44943
69.40000,-23.13334,-15.43337
69.50000,-23.16670,-15.58417
69.60001,-23.19994,-15.87323
69.70001,-23.23330,-15.83445
69.80000,-23.26667,-16.40395
69.90000,-23.29997,-15.12356
70.00000,-23.33327,-15.62843
70.10001,-23.36657,-16.10667
70.20001,-23.40012,-16.44821
70.30000,-23.43342,-16.19519
70.40000,-23.46666,-16.23005
70.50000,-23.49996,-16.11764
70.60001,-23.53333,-16.08630
70.70001,-23.56669,-16.07103
70.80000,-23.60011,-16.26765
70.90000,-23.63336,-16.11685
71.00000,-23.66672,-16.09570
71.10001,-23.70008,-16.33071
71.20001,-23.73332,-16.04361
71.30000,-23.76668,-16.34794
71.40000,-23.80005,-16.20145
71.50000,-23.83335,-16.60449
71.60001,-23.86665,-15.90887
71.70001,-23.90002,-17.33536
71.80000,-23.93332,-16.38750
71.90000,-23.96662,-16.04008
72.00000,-24.00005,-16.35499
72.10001,-24.03335,-16.15759
72.20001,-24.06659,-15.76238
72.30000,-24.10001,-17.20728
72.40000,-24.13337,-16.40630
72.50000,-24.16668,-16.22652
72.60001,-24.19998,-16.08787
72.70001,-24.23328,-16.02794
72.80000,-24.26670,-16.33933
72.90000,-24.30001,-16.02324
73.00000,-24.33337,-16.60175
73.10001,-24.36679,-15.34407
73.20001,-24.40009,-16.61350
73.30000,-24.43328,-16.37183
73.40000,-24.46658,-16.15210
73.50000,-24.50006,-16.94133
73.60001,-24.53331,-16.42549
73.70001,-24.56661,-16.67695
73.80000,-24.59997,-16.71024
73.90000,-24.63334,-16.49365
74.00000,-24.66670,-16.62877
74.10001,-24.70000,-16.18579
74.20001,-24.73330,-16.49090
74.30000,-24.76666,-17.12777
74.40000,-24.79997,-17.09918
74.50000,-24.83333,-16.35656
74.60001,-24.86669,-16.90608
74.70001,-24.89999,-17.10897
74.80000,-24.93330,-16.76469
74.90000,-24.96672,-16.68870
75.00000,-25.00002,-16.47328
75.10001,-25.03339,-16.11959
75.20001,-25.06669,-16.35813
75.30000,-25.09987,-16.50579
75.40000,-25.13335,-17.44973
75.50000,-25.16654,-17.01262
75.60001,-25.19984,-17.24410
75.70001,-25.23320,-16.98442
75.80000,-25.26656,-17.00126
75.90000,-25.29999,-15.68092
76.00000,-25.33335,-16.92018
76.10001,-25.36665,-16.60332
76.20001,-25.39995,-15.81095
76.30000,-25.43332,-16.88180
76.40000,-25.46668,-16.60057
76.50000,-25.49998,-16.70163
76.60001,-25.53341,-16.92802
76.70001,-25.56677,-16.65423
76.80000,-25.60013,-16.98716
76.90000,-25.63343,-16.53399
77.00000,-25.66674,-17.09605
77.10001,-25.70004,-17.35886
77.20001,-25.73340,-17.16733
77.30000,-25.76670,-17.03690
77.40000,-25.79995,-16.55240
77.50000,-25.83325,-16.56062
77.60001,-25.86661,-16.86731
77.70001,-25.90009,-17.37061
77.80000,-25.93340,-16.93938
77.90000,-25.96676,-16.56611
78.00000,-26.00000,-17.10310
78.10001,-26.03343,-16.69458
78.20001,-26.06673,-16.95504
78.30000,-26.09997,-16.69928
78.40000,-26.13327,-16.34990
78.50000,-26.16658,-17.24136
78.60001,-26.19994,-16.68361
78.70001,-26.23336,-16.64562
78.80000,-26.26666,-16.14858
78.90000,-26.29997,-17.28131
79.00000,-26.33333,-17.12699
79.10001,-26.36669,-16.71377
79.20001,-26.39999,-16.55514
79.30000,-26.43330,-17.26603
79.40000,-26.46660,-16.24297
79.50000,-26.50002,-17.55979
79.60001,-26.53326,-17.28993
79.70001,-26.56669,-16.44704
79.80000,-26.60005,-16.30368
79.90000,-26.63335,-15.83210
80.00000,-26.66665,-16.34716
80.10001,-26.69996,-16.77448
80.20001,-26.73332,-16.36518
80.30000,-26.76668,-17.05492
80.40000,-26.79999,-15.96057
80.50001,-26.83323,-16.57472
80.60001,-26.86665,-16.85830
80.70001,-26.89995,-16.73923
80.80000,-26.93332,-16.88376
80.90000,-26.96656,-17.21512
81.00001,-26.99998,-16.19480
81.10001,-27.03334,-16.66833
81.20001,-27.06659,-16.70398
81.30000,-27.09995,-16.35303
81.40000,-27.13325,-17.01497
81.50001,-27.16667,-16.66011
81.60001,-27.20004,-16.57707
81.70001,-27.23340,-16.84851
81.80000,-27.26676,-16.77800
81.90000,-27.30001,-16.44899
82.00001,-27.33337,-15.85560
82.10001,-27.36673,-16.38789
82.20001,-27.40003,-16.29154
82.30000,-27.43328,-16.87906
82.40000,-27.46658,-16.81208
82.50001,-27.50000,-17.28288
82.60001,-27.53330,-16.39298
82.70001,-27.56679,-16.83950
82.80000,-27.60003,-16.71534
82.90000,-27.63339,-16.11529
83.00001,-27.66663,-16.71690
83.10001,-27.69994,-17.22256
83.20001,-27.73330,-17.02202
83.30000,-27.76660,-16.08983
83.40000,-27.79996,-16.84420
83.50001,-27.83339,-16.52341
83.60001,-27.86675,-16.94682
83.70001,-27.90005,-16.66442
83.80000,-27.93336,-16.87749
83.90000,-27.96678,-16.91235
84.00001,-28.00008,-16.19284
84.10001,-28.03332,-15.92650
84.20001,-28.06663,-16.06711
84.30000,-28.09999,-17.47284
84.40000,-28.13341,-16.16307
84.50001,-28.16665,-17.00831
84.60001,-28.19996,-16.54026
84.70001,-28.23326,-16.95739
84.80000,-28.26668,-17.02124
84.90000,-28.30010,-16.71299
85.00001,-28.33341,-16.39768
85.10001,-28.36665,-17.01732
85.20001,-28.39995,-16.90452
85.30000,-28.43337,-16.41766
85.40000,-28.46674,-16.41962
85.50001,-28.50010,-17.07020
85.60001,-28.53346,-17.12464
85.70001,-28.56677,-17.12660
85.80000,-28.60007,-16.07964
85.90000,-28.63331,-16.90021
86.00001,-28.66661,-17.32048
86.10001,-28.69986,-16.70398
86.20001,-28.73334,-17.36199
86.30000,-28.76664,-17.79832
86.40000,-28.79989,-16.75294
86.50001,-28.83331,-17.05061
86.60001,-28.86667,-16.65815
86.70001,-28.90003,-16.85007
86.80000,-28.93334,-17.05649
86.90000,-28.96670,-16.33933
87.00001,-29.00000,-17.20258
87.10001,-29.03336,-17.29737
87.20001,-29.06667,-16.74158
87.30000,-29.09997,-16.88728
87.40000,-29.13333,-16.40865
87.50001,-29.16663,-16.72787
87.60001,-29.19994,-16.83480
87.70001,-29.23336,-17.50574
87.80000,-29.26660,-17.15284
87.90000,-29.29996,-16.29781
88.00001,-29.33333,-17.38471
88.10001,-29.36663,-16.55631
88.20001,-29.40005,-16.92097
88.30000,-29.43330,-17.57429
88.40000,-29.46672,-16.68909
88.50001,-29.50002,-16.75920
88.60001,-29.53338,-16.89864
88.70001,-29.56669,-17.14892
88.80000,-29.59999,-16.62525
88.90000,-29.63335,-16.75881
89.00001,-29.66677,-16.70280
89.10001,-29.70007,-17.22452
89.20001,-29.73344,-16.47563
89.30000,-29.76662,-16.50618
89.40000,-29.79998,-17.02084
89.50001,-29.83329,-16.49639
89.60001,-29.86671,-17.02946
89.70001,-29.89995,-16.98363
89.80000,-29.93332,-16.84694
89.90000,-29.96662,-16.92684
90.00001,-29.99986,-16.66951
90.10001,-30.03328,-16.35147
90.20001,-30.06671,-16.22574
90.30000,-30.10007,-16.49130
90.40000,-30.13325,-16.63152
90.50001,-30.16673,-16.77761
90.60001,-30.20004,-16.70398
90.70001,-30.23340,-16.40473
90.80000,-30.26670,-16.94878
90.90000,-30.30000,-17.12895
91.00001,-30.33336,-17.08586
91.10001,-30.36661,-16.67186
91.20001,-30.39997,-16.58765
91.30000,-30.43321,-17.62559
91.40000,-30.46670,-17.02398
91.50001,-30.50006,-16.15171
91.60001,-30.53330,-16.30877
91.70001,-30.56654,-17.51710
91.80000,-30.60003,-16.56219
91.90000,-30.63339,-17.27465
92.00001,-30.66675,-16.66403
92.10001,-30.70000,-16.44978
92.20001,-30.73336,-15.92415
92.30000,-30.76678,-16.91352
92.40000,-30.80002,-16.50383
92.50001,-30.83333,-17.21355
92.60001,-30.86663,-16.70711
92.70001,-30.89999,-16.98363
92.80000,-30.93341,-17.14266
92.90000,-30.96678,-16.32953
93.00001,-31.00008,-16.60332
93.10001,-31.03332,-16.58412
93.20001,-31.06662,-16.59392
93.30000,-31.10005,-16.72552
93.40000,-31.13329,-16.97854
93.50001,-31.16665,-16.98559
93.60001,-31.20007,-17.88998
93.70001,-31.23338,-16.38593
93.80000,-31.26668,-16.49600
93.90000,-31.30005,-16.24376
94.00001,-31.33334,-16.46505
94.10001,-31.36677,-16.15132
94.20001,-31.40007,-16.35068
94.30000,-31.43343,-16.86300
94.40000,-31.46662,-16.56963
94.50001,-31.49992,-16.91548
94.60001,-31.53328,-15.81800
94.70001,-31.56670,-16.70593
94.80000,-31.60013,-15.30138
94.90000,-31.63337,-15.79333
95.00001,-31.66667,-15.78941
95.10001,-31.70004,-16.17286
95.20001,-31.73328,-16.11568
95.30000,-31.76664,-15.87793
95.40000,-31.79994,-16.60253
95.50001,-31.83336,-15.63822
95.60001,-31.86673,-16.06750
95.70001,-31.89997,-15.57869
95.80000,-31.93339,-15.55832
95.90000,-31.96670,-16.25159
96.00001,-32.00000,-16.04948
96.10001,-32.03336,-15.50897
96.20001,-32.06667,-16.21164
96.30000,-32.10003,-15.72713
96.40000,-32.13339,-16.53986
96.50001,-32.16675,-15.75220
96.60001,-32.20006,-15.98016
96.70001,-32.23342,-16.02442
96.80000,-32.26672,-16.48464
96.90000,-32.29996,-15.98329
97.00001,-32.33332,-15.41927
97.10001,-32.36663,-15.81839
97.20001,-32.39987,-16.44116
97.30000,-32.43329,-15.98799
97.40000,-32.46672,-15.97193
97.50001,-32.50008,-16.13252
97.60001,-32.53344,-15.94765
97.70001,-32.56674,-16.06750
97.80000,-32.60005,-16.29820
97.90000,-32.63341,-15.92610
98.00001,-32.66677,-16.37418
98.10001,-32.70001,-15.23362
98.20001,-32.73332,-16.43568
98.30000,-32.76662,-16.22456
98.40000,-32.79992,-15.98368
98.50001,-32.83328,-15.48351
98.60001,-32.86665,-15.32684
98.70001,-32.89989,-15.84229
98.80000,-32.93325,-16.04008
98.90000,-32.96662,-15.66368
99.00001,-32.99992,-16.00366
99.10001,-33.03322,-15.91005
99.20001,-33.06658,-16.45017
99.30000,-33.09988,-15.71930
99.40000,-33.13337,-16.53477
99.50001,-33.16667,-15.34916
99.60001,-33.20003,-15.65781
99.70001,-33.23340,-15.94647
99.80000,-33.26676,-15.70951
99.90000,-33.30006,-14.89991
100.00001,-33.33342,-16.51676
100.10001,-33.36661,-15.69776
100.20001,-33.39997,-15.33820
100.30000,-33.43327,-14.91440
100.40000,-33.46676,-15.20777
100.50001,-33.50005,-16.13918
100.60001,-33.53336,-15.79959
100.70001,-33.56678,-15.40674
100.80000,-33.59990,-16.20772
100.90000,-33.63333,-16.24023
101.00001,-33.66663,-16.34481
101.10001,-33.69987,-15.78510
101.20001,-33.73330,-16.00091
101.30000,-33.76666,-15.80547
101.40000,-33.80008,-16.09883
101.50001,-33.83338,-15.67504
101.60001,-33.86675,-15.49291
101.70001,-33.89999,-15.88733
101.80000,-33.93335,-15.30060
101.90000,-33.96678,-15.28845
102.00001,-34.00002,-15.56537
102.10001,-34.03332,-15.76708
102.20001,-34.06674,-16.13683
102.30000,-34.09998,-15.58691
102.40000,-34.13329,-15.91279
102.50001,-34.16665,-15.54696
102.60001,-34.20007,-15.54618
102.70001,-34.23349,-11.59846
102.80000,-34.26668,-12.86554
102.90000,-34.29998,-13.10955
103.00001,-34.33328,-13.73271
103.10001,-34.36659,-13.50985
103.20001,-34.40001,-13.38764
103.30000,-34.43331,-13.14049
103.40000,-34.46650,-13.63048
103.50001,-34.49992,-14.21252
103.60001,-34.53322,-13.74289
103.70001,-34.56670,-13.50750
103.80000,-34.60006,-14.25834
103.90000,-34.63331,-13.82789
104.00001,-34.66667,-14.03352
104.10001,-34.70009,-13.70216
104.20001,-34.73340,-14.26813
104.30000,-34.76670,-14.14084
104.40000,-34.80006,-12.53261
104.50001,-34.83336,-10.02822
104.60001,-34.86655,-11.59454
104.70001,-34.89997,-12.27880
104.80000,-34.93339,-11.94744
104.90000,-34.96664,-13.19572
105.00001,-35.00000,-12.14759
105.10001,-35.03336,-11.96585
105.20001,-35.06672,-12.97285
105.30000,-35.10002,-12.76252
105.40000,-35.13333,-12.76722
105.50001,-35.16657,-12.59293
105.60001,-35.19981,-12.23337
105.70001,-35.23330,-12.52713
105.80000,-35.26690,-12.53692
105.90000,-35.30026,-12.81853
106.00001,-35.33350,-12.91058
106.10001,-35.36675,-12.27449
106.20001,-35.40005,-11.59180
106.30000,-35.43335,-12.54318
106.40000,-35.46660,-12.33364
106.50001,-35.50007,-12.13427
106.60001,-35.53332,-12.87689
106.70001,-35.56668,-12.28389
106.80000,-35.60004,-12.81697
106.90000,-35.63335,-13.16556
107.00001,-35.66671,-12.46132
107.10001,-35.70007,-11.80605
107.20001,-35.73338,-11.92277
107.30000,-35.76674,-12.43077
107.40000,-35.80004,-11.64742
107.50001,-35.83340,-12.64541
107.60001,-35.86671,-12.17501
107.70001,-35.89995,-12.21574
107.80000,-35.93337,-12.13231
107.90000,-35.96662,-12.11586
108.00001,-35.99998,-11.99053
108.10001,-36.03328,-12.29134
108.20001,-36.06658,-11.94392
108.30000,-36.10006,-12.05085
108.40000,-36.13343,-12.37868
108.50001,-36.16667,-12.30191
108.60001,-36.19997,-12.03479
108.70001,-36.23327,-11.80448
108.80000,-36.26664,-12.33755
108.90000,-36.30000,-11.88477
109.00001,-36.33330,-11.93883
109.10001,-36.36661,-11.99523
109.20001,-36.39997,-12.00933
109.30000,-36.43345,-12.29486
109.40000,-36.46669,-11.95371
109.50001,-36.49988,-12.28781
109.60001,-36.53318,-12.21574
109.70001,-36.56672,-12.12526
109.80000,-36.60002,-12.25138
109.90000,-36.63333,-11.85853
110.00001,-36.66663,-12.12056
110.10001,-36.69993,-11.92943
110.20001,-36.73329,-11.76140
110.30000,-36.76666,-12.14994
110.40000,-36.80002,-12.05085
110.50001,-36.83338,-11.66974
110.60001,-36.86669,-12.62387
110.70001,-36.89999,-12.49148
110.80000,-36.93335,-8.74313
110.90000,-36.96671,-10.45162
111.00001,-37.00001,-10.45045
111.10001,-37.03350,-10.49667
111.20001,-37.06674,-10.63336
111.30000,-37.10010,-10.88795
111.40000,-37.13335,-10.37564
111.50001,-37.16665,-11.12061
111.60001,-37.20001,-10.59498
111.70001,-37.23325,-11.29295
111.80000,-37.26674,-11.03327
111.90000,-37.30004,-10.57187
112.00001,-37.33334,-10.68663
112.10001,-37.36671,-10.59537
112.20001,-37.40007,-10.75988
112.30000,-37.43337,-10.76418
112.40000,-37.46667,-10.56600
112.50001,-37.49997,-10.75870
112.60001,-37.53334,-10.57657
112.70001,-37.56670,-10.47513
112.80000,-37.59994,-11.29138
112.90001,-37.63337,-10.87111
113.00001,-37.66667,-10.07209
113.10001,-37.70003,-10.72267
113.20001,-37.73334,-10.87581
113.30000,-37.76657,-10.73324
113.40001,-37.79988,-10.96551
113.50001,-37.83330,-11.14959
113.60001,-37.86660,-11.10768
113.70001,-37.89991,-10.91459
113.80000,-37.93327,-10.75635
113.90001,-37.96669,-10.75283
114.00001,-38.00005,-11.09594
114.10001,-38.03342,-11.13079
114.20001,-38.06660,-10.96277
114.30000,-38.09990,-10.93770
114.40001,-38.13327,-10.83390
114.50001,-38.16663,-10.32629
114.60001,-38.20005,-11.18641
114.70001,-38.23335,-11.14529
114.80000,-38.26665,-11.78803
114.90001,-38.30014,-10.47669
115.00001,-38.33338,-10.71483
115.10001,-38.36668,-10.64433
115.20001,-38.39999,-10.07562
115.30000,-38.43323,-10.78259
115.40001,-38.46671,-10.63611
115.50001,-38.49995,-11.02622
115.60001,-38.53332,-11.14450
115.70001,-38.56674,-10.81549
115.80000,-38.60010,-11.55067
115.90001,-38.63335,-10.31689
116.00001,-38.66671,-10.87542
116.10001,-38.69995,-10.90245
116.20001,-38.73325,-11.27062
116.30000,-38.76661,-10.70230
116.40001,-38.80004,-10.56247
116.50001,-38.83340,-10.34626
116.60001,-38.86664,-10.67606
116.70001,-38.90012,-11.58710
116.80000,-38.93343,-10.59772
116.90001,-38.96679,-10.74656
117.00001,-38.99997,-10.41872
117.10001,-39.03322,-10.04820
117.20001,-39.06658,-10.78338
117.30000,-39.10000,-11.46920
117.40001,-39.13336,-9.88722
117.50001,-39.16667,-10.87895
117.60001,-39.20003,-10.18058
117.70001,-39.23339,-10.69956
117.80000,-39.26669,-10.85074
117.90001,-39.30000,-10.81471
118.00001,-39.33336,-10.77515
118.10001,-39.36660,-10.58989
118.20001,-39.40009,-10.50333
118.30000,-39.43339,-10.95258
118.40001,-39.46663,-10.73755
118.50001,-39.50005,-10.54602
118.60001,-39.53342,-10.29848
118.70001,-39.56666,-11.26044
118.80000,-39.59996,-11.16840
118.90001,-39.63333,-11.16174
119.00001,-39.66675,-10.62083
119.10001,-39.69993,-10.50685
119.20001,-39.73335,-10.48727
119.30000,-39.76671,-10.87738
119.40001,-39.79996,-10.70974
119.50001,-39.83332,-10.41207
119.60001,-39.86668,-10.34235
119.70001,-39.90005,-11.32977
119.80000,-39.93341,-9.91581
119.90001,-39.96659,-10.27850
120.00001,-39.99989,-10.59890
120.10001,-40.03338,-10.70582
120.20001,-40.06668,-10.48061
120.30000,-40.10004,-10.50724
120.40001,-40.13329,-11.09985
120.50001,-40.16670,-9.97848
120.60001,-40.20007,-10.95846
120.70001,-40.23331,-10.81941
120.80000,-40.26667,-10.61026
120.90001,-40.29998,-10.64746
121.00001,-40.33334,-10.10577
121.10001,-40.36670,-10.54210
121.20001,-40.40007,-10.29182
121.30000,-40.43337,-10.54289
121.40001,-40.46667,-10.11909
121.50001,-40.49997,-9.99767
121.60001,-40.53328,-10.45633
121.70001,-40.56664,-10.71679
121.80000,-40.59994,-10.54563
121.90001,-40.63331,-10.03527
122.00001,-40.66673,-10.84644
122.10001,-40.69991,-10.64237
122.20001,-40.73327,-10.12497
122.30000,-40.76663,-10.40188
122.40001,-40.80018,-10.39562
122.50001,-40.83336,-9.95380
122.60001,-40.86672,-10.69486
122.70001,-40.89997,-9.83082
122.80000,-40.93327,-9.31772
122.90001,-40.96663,-10.13867
123.00001,-41.00000,-10.40932
123.10001,-41.03336,-9.90719
123.20001,-41.06660,-9.53549
123.30000,-41.10002,-9.66553
123.40001,-41.13338,-10.36976
123.50001,-41.16674,-9.68002
123.60001,-41.19999,-10.08697
123.70001,-41.23324,-10.13789
123.80000,-41.26671,-9.41721
123.90001,-41.30002,-10.27733
124.00001,-41.33326,-10.32433
124.10001,-41.36668,-9.60364
124.20001,-41.39998,-10.46377
124.30000,-41.43335,-9.84766
124.40001,-41.46671,-10.55229
124.50001,-41.49995,-10.09637
124.60001,-41.53332,-10.15121
124.70001,-41.56662,-10.36781
124.80000,-41.59998,-9.88604
124.90001,-41.63335,-9.56252
125.00001,-41.66665,-9.44227
125.10001,-41.70001,-9.70861
125.20001,-41.73331,-9.52022
125.30000,-41.76673,-10.28790
125.40001,-41.80004,-10.28438
125.50001,-41.83328,-9.58602
125.60001,-41.86658,-10.16648
125.70001,-41.90001,-9.43992
125.80000,-41.93331,-9.29030
125.90001,-41.96667,-9.76971
126.00001,-42.00003,-10.12144
126.10001,-42.03334,-9.48222
126.20001,-42.06664,-9.54646
126.30000,-42.10000,-9.85040
126.40001,-42.13336,-10.53270
126.50001,-42.16666,-9.90210
126.60001,-42.19997,-9.78851
126.70001,-42.23327,-10.31219
126.80000,-42.26658,-9.92521
126.90001,-42.30000,-10.27615
127.00001,-42.33336,-9.73055
127.10001,-42.36666,-9.56643
127.20001,-42.40002,-10.04741
127.30000,-42.43333,-9.45716
127.40001,-42.46669,-10.23855
127.50001,-42.49999,-9.82533
127.60001,-42.53342,-9.77872
127.70001,-42.56672,-9.39566
127.80000,-42.59990,-10.21975
127.90001,-42.63326,-9.77951
128.00000,-42.66663,-10.13319
128.10001,-42.69999,-9.26249
128.20002,-42.73341,-10.04781
128.30000,-42.76665,-8.99733
128.40001,-42.79996,-9.87625
128.50000,-42.83332,-8.81872
128.60001,-42.86656,-10.33569
128.70002,-42.89999,-9.81907
128.80000,-42.93335,-9.44776
128.90001,-42.96665,-9.87116
129.00000,-43.00007,-8.71728
129.10001,-43.03344,-9.48653
129.20002,-43.06662,-9.97064
129.30000,-43.09998,-9.70587
129.40001,-43.13334,-9.64673
129.50000,-43.16664,-9.64242
129.60001,-43.20001,-9.48222
129.70002,-43.23343,-9.47831
129.80000,-43.26667,-9.59503
129.90001,-43.29998,-8.97265
130.00000,-43.33334,-9.90680
130.10001,-43.36664,-9.16536
130.20002,-43.40000,-8.71963
130.30000,-43.43330,-9.36981
130.40001,-43.46661,-9.70626
130.50000,-43.50003,-9.02083
130.60001,-43.53333,-9.70744
130.70002,-43.56664,-9.38352
130.80000,-43.59994,-9.78342
130.90001,-43.63336,-9.60208
131.00000,-43.66678,-9.46186
131.10000,-43.70003,-8.75214
131.20002,-43.73327,-9.58915
131.30000,-43.76663,-9.74425
131.40002,-43.80005,-8.68007
131.50000,-43.83348,-9.65104
131.60000,-43.86672,-9.47674
131.70002,-43.90002,-9.81867
131.80000,-43.93338,-9.71488
131.90002,-43.96669,-8.37847
132.00000,-44.00005,-9.37099
132.10000,-44.03329,-8.87591
132.20002,-44.06672,-8.76585
132.30000,-44.10002,-9.57936
132.40002,-44.13338,-8.98793
132.50000,-44.16668,-8.59351
132.60000,-44.19993,-8.53280
132.70002,-44.23323,-8.58019
132.80000,-44.26665,-6.94415
132.90002,-44.29984,-6.77064
133.00000,-44.33314,-7.81368
133.10000,-44.36674,-7.03189
133.20002,-44.39998,-8.57431
133.30000,-44.43334,-7.71145
133.40002,-44.46665,-8.13994
133.50000,-44.50001,-7.55360
133.60000,-44.53331,-7.91355
133.70002,-44.56668,-8.17754
133.80000,-44.60004,-8.65343
133.90002,-44.63340,-8.07492
134.00000,-44.66671,-7.82582
134.10000,-44.69995,-8.01657
134.20002,-44.73337,-7.65035
134.30000,-44.76673,-7.98131
134.40002,-44.79998,-8.11370
134.50000,-44.83334,-7.86538
134.60000,-44.86670,-7.59081
134.70002,-44.90000,-6.17646
134.80000,-44.93331,-6.96178
134.90002,-44.96667,-6.85093
135.00000,-45.00003,-7.72241
135.10000,-45.03333,-6.52545
135.20002,-45.06663,-7.77725
135.30000,-45.10000,-7.13568
135.40002,-45.13336,-7.40594
135.50000,-45.16666,-7.55674
135.60000,-45.20009,-7.16192
135.70002,-45.23339,-7.25632
135.80000,-45.26669,-7.18699
135.90002,-45.30000,-6.88814
136.00000,-45.33330,-7.29157
136.10000,-45.36666,-6.92496
136.20002,-45.40002,-7.34640
136.30000,-45.43332,-7.60883
136.40002,-45.46669,-6.87248
136.50000,-45.50005,-7.46626
136.60000,-45.53329,-6.72990
136.70002,-45.56666,-6.73695
136.80000,-45.59996,-7.46665
136.90002,-45.63332,-6.89402
137.00000,-45.66650,-6.60183
137.10000,-45.69999,-6.58146
137.20002,-45.73323,-7.41651
137.30000,-45.76665,-7.10866
137.40002,-45.80007,-6.55796
137.50000,-45.83349,-7.30645
137.60000,-45.86680,-5.85059
137.70002,-45.90004,-6.70758
137.80000,-45.93329,-6.56422
137.90002,-45.96659,-6.56579
138.00000,-46.00001,-7.11257
138.10000,-46.03331,-7.27629
138.20002,-46.06661,-6.97705
138.30000,-46.09992,-6.63825
138.40002,-46.13334,-6.60339
138.50000,-46.16676,-6.87091
138.60000,-46.19995,-6.70562
138.70002,-46.23325,-6.38640
138.80000,-46.26661,-6.70249
138.90002,-46.30010,-6.21563
139.00000,-46.33340,-6.56383
139.10000,-46.36670,-6.27282
139.20002,-46.40000,-6.14200
139.30000,-46.43324,-6.37974
139.40002,-46.46673,-6.35233
139.50000,-46.50015,-5.99825
139.60000,-46.53333,-6.55913
139.70002,-46.56664,-6.69975
139.80000,-46.59994,-6.62846
139.90002,-46.63324,-5.96026
140.00000,-46.66660,-7.19130
140.10000,-46.70002,-6.04564
140.20002,-46.73345,-5.79340
140.30000,-46.76675,-5.76520
140.40002,-46.80005,-5.65592
140.50000,-46.83341,-5.10679
140.60000,-46.86672,-6.13808
140.70002,-46.89996,-5.74679
140.80000,-46.93332,-6.16040
140.90002,-46.96663,-5.26503
141.00000,-46.99999,-5.93832
141.10000,-47.03329,-6.52271
141.20002,-47.06665,-6.03428
141.30000,-47.10002,-5.55957
141.40002,-47.13338,-5.31712
141.50000,-47.16668,-6.38758
141.60000,-47.19999,-5.98219
141.70002,-47.23335,-6.22229
141.80000,-47.26671,-5.63517
141.90002,-47.29996,-5.81808
142.00000,-47.33332,-6.09969
142.10000,-47.36668,-5.79536
142.20002,-47.40004,-5.89093
142.30000,-47.43346,-5.99198
142.40002,-47.46676,-5.70253
142.50000,-47.50001,-6.40677
142.60000,-47.53331,-5.72016
142.70002,-47.56667,-6.29632
142.80000,-47.60004,-6.12280
142.90002,-47.63334,-5.98180
143.00000,-47.66670,-5.85333
143.10000,-47.69994,-6.42244
143.20002,-47.73325,-5.72564
143.30000,-47.76661,-5.50434
143.40002,-47.79991,-5.33788
143.50000,-47.83322,-5.23761
143.60000,-47.86676,-5.43658
143.70002,-47.89994,-5.25485
143.80000,-47.93324,-5.17298
143.90002,-47.96667,-5.64026
144.00000,-48.00003,-5.14674
144.10000,-48.03345,-5.68256
144.20002,-48.06669,-5.40172
144.30000,-48.10006,-5.08172
144.40002,-48.13324,-5.98454
144.50000,-48.16660,-6.00647
144.60000,-48.19996,-5.83962
144.70002,-48.23333,-5.69352
144.80000,-48.26669,-6.13338
144.90002,-48.29993,-4.92231
145.00000,-48.33329,-5.76481
145.10000,-48.36672,-5.66963
145.20002,-48.40008,-5.35707
145.30000,-48.43338,-5.33671
145.40002,-48.46674,-5.58072
145.50000,-48.50005,-5.46244
145.60000,-48.53353,-5.23996
145.70002,-48.56671,-5.28579
145.80000,-48.60008,-6.25323
145.90002,-48.63332,-5.20706
146.00000,-48.66674,-5.09152
146.10000,-48.70004,-5.52549
146.20002,-48.73328,-5.32691
146.30000,-48.76659,-5.46165
146.40002,-48.80001,-4.99085
146.50000,-48.83337,-5.14204
146.60000,-48.86662,-5.12324
146.70002,-48.90004,-5.39820
146.80000,-48.93340,-5.74718
146.90002,-48.96671,-5.78087
147.00000,-49.00007,-4.79580
147.10000,-49.03331,-4.58586
147.20002,-49.06667,-5.27130
147.30000,-49.10009,-5.21411
147.40002,-49.13340,-4.74449
147.50000,-49.16670,-4.98733
147.60000,-49.20000,-4.87844
147.70002,-49.23348,-5.36138
147.80000,-49.26667,-5.24780
147.90002,-49.30015,-5.56858
148.00000,-49.33345,-5.05156
148.10000,-49.36669,-5.11541
148.20002,-49.40000,-5.42444
148.30000,-49.43324,-5.11619
148.40002,-49.46661,-5.74797
148.50000,-49.49997,-4.64892
148.60000,-49.53327,-5.35433
148.70002,-49.56669,-4.85142
148.80000,-49.59999,-5.56897
148.90002,-49.63342,-4.72804
149.00000,-49.66660,-4.76016
149.10000,-49.69996,-4.82008
149.20002,-49.73345,-5.13734
149.30000,-49.76663,-5.29754
149.40002,-49.79999,-5.17612
149.50000,-49.83329,-5.16241
149.60000,-49.86660,-4.20828
149.70002,-49.90002,-5.23448
149.80000,-49.93338,-5.47967
149.90002,-49.96675,-5.24075
150.00000,-50.00005,-4.52202
150.10000,-50.03335,-4.81068
150.20002,-50.06671,-5.78361
150.30000,-50.10007,-4.61915
150.40002,-50.13338,-5.66611
150.50000,-50.16668,-5.04765
150.60000,-50.20004,-5.15967
150.70002,-50.23335,-5.48711
150.80000,-50.26665,-4.87139
150.90002,-50.30001,-4.76016
151.00000,-50.33343,-4.85768
151.10000,-50.36667,-4.45347
151.13000,-50.37660,-5.08055
